'sample interval','SpO2','hr'
'1 sec','%','bpm'
0,96.99990844,73.00027467
1,96.99990844,73.00027467
2,96.99990844,73.00027467
3,96.99990844,73.00027467
4,96.99990844,73.00027467
5,96.99990844,74.00006104
6,96.99990844,74.00006104
7,96.99990844,74.00006104
8,96.99990844,74.00006104
9,96.99990844,74.00006104
10,96.99990844,74.00006104
11,96.99990844,74.00006104
12,96.99990844,74.00006104
13,96.99990844,74.00006104
14,96.99990844,74.00006104
15,96.99990844,74.00006104
16,96.99990844,74.00006104
17,96.99990844,74.00006104
18,96.99990844,74.00006104
19,93.00003052,74.00006104
20,93.00003052,74.00006104
21,93.00003052,74.00006104
22,93.00003052,74.00006104
23,93.00003052,74.00006104
24,93.00003052,74.00006104
25,93.00003052,74.00006104
26,93.00003052,74.00006104
27,93.00003052,74.00006104
28,91.00009156,74.00006104
29,91.00009156,74.00006104
30,91.00009156,74.00006104
31,91.00009156,74.00006104
32,91.00009156,74.00006104
33,91.00009156,74.00006104
34,91.00009156,74.00006104
35,91.00009156,74.00006104
36,91.00009156,74.00006104
37,91.00009156,74.00006104
38,91.00009156,74.00006104
39,90.00006104,75.00064089
40,91.00009156,75.00064089
41,93.00003052,77.00021363
42,93.00003052,77.00021363
43,94.99996948,78.00000000
44,94.99996948,78.00000000
45,94.99996948,79.00057985
46,96.00000000,79.00057985
47,96.00000000,79.00057985
48,96.00000000,79.00057985
49,96.99990844,80.00036622
50,96.99990844,80.00036622
51,96.99990844,80.00036622
52,96.99990844,80.00036622
53,96.99990844,80.00036622
54,96.99990844,80.00036622
55,96.99990844,80.00036622
56,96.99990844,80.00036622
57,96.99990844,79.00057985
58,96.99990844,79.00057985
59,96.99990844,79.00057985
60,96.99990844,79.00057985
61,96.99990844,78.00000000
62,96.00000000,77.00021363
63,96.00000000,77.00021363
64,96.00000000,77.00021363
65,96.00000000,77.00021363
66,96.00000000,76.00042726
67,96.00000000,76.00042726
68,94.99996948,74.00006104
69,94.99996948,74.00006104
70,94.99996948,74.00006104
71,94.99996948,75.00064089
72,94.99996948,74.00006104
73,94.99996948,75.00064089
74,94.99996948,73.00027467
75,94.99996948,73.00027467
76,94.99996948,72.00048830
77,94.99996948,70.00012207
78,96.00000000,68.00054933
79,96.00000000,68.00054933
80,96.00000000,67.00076296
81,96.00000000,65.00039674
82,96.00000000,65.00039674
83,96.00000000,65.00039674
84,96.00000000,65.00039674
85,96.00000000,64.00061037
86,96.00000000,64.00061037
87,96.00000000,64.00061037
88,96.00000000,63.00003052
89,96.00000000,63.00003052
90,96.00000000,63.00003052
91,96.00000000,63.00003052
92,96.00000000,63.00003052
93,96.00000000,63.00003052
94,96.00000000,62.00024415
95,96.00000000,62.00024415
96,96.00000000,62.00024415
97,96.00000000,62.00024415
98,96.00000000,62.00024415
99,96.00000000,62.00024415
100,96.00000000,62.00024415
101,96.00000000,62.00024415
102,96.00000000,63.00003052
103,96.00000000,63.00003052
104,96.99990844,62.00024415
105,96.99990844,62.00024415
106,96.00000000,63.00003052
107,96.00000000,63.00003052
108,96.00000000,62.00024415
109,96.00000000,62.00024415
110,96.00000000,63.00003052
111,96.00000000,63.00003052
112,96.00000000,63.00003052
113,96.00000000,63.00003052
114,96.00000000,64.00061037
115,96.00000000,65.00039674
116,96.00000000,66.00018311
117,96.00000000,66.00018311
118,96.00000000,66.00018311
119,96.00000000,67.00076296
120,96.00000000,65.00039674
121,96.00000000,65.00039674
122,96.00000000,65.00039674
123,96.00000000,65.00039674
124,96.00000000,65.00039674
125,96.00000000,65.00039674
126,96.00000000,65.00039674
127,96.00000000,65.00039674
128,96.00000000,65.00039674
129,96.00000000,65.00039674
130,96.00000000,65.00039674
131,94.99996948,65.00039674
132,94.99996948,66.00018311
133,94.99996948,66.00018311
134,96.00000000,66.00018311
135,96.00000000,66.00018311
136,96.00000000,65.00039674
137,96.00000000,65.00039674
138,96.00000000,66.00018311
139,96.00000000,65.00039674
140,96.00000000,65.00039674
141,96.00000000,64.00061037
142,96.00000000,64.00061037
143,96.00000000,65.00039674
144,96.00000000,64.00061037
145,96.00000000,64.00061037
146,96.00000000,65.00039674
147,96.00000000,65.00039674
148,96.00000000,65.00039674
149,96.00000000,66.00018311
150,96.00000000,66.00018311
151,96.00000000,67.00076296
152,96.00000000,67.00076296
153,96.00000000,68.00054933
154,96.00000000,68.00054933
155,96.00000000,68.00054933
156,96.00000000,68.00054933
157,96.00000000,68.00054933
158,96.00000000,67.00076296
159,96.00000000,67.00076296
160,96.00000000,66.00018311
161,96.00000000,66.00018311
162,96.00000000,66.00018311
163,96.00000000,66.00018311
164,96.00000000,65.00039674
165,96.00000000,66.00018311
166,96.00000000,66.00018311
167,96.00000000,66.00018311
168,96.00000000,67.00076296
169,96.00000000,67.00076296
170,96.00000000,67.00076296
171,96.00000000,67.00076296
172,96.00000000,67.00076296
173,96.00000000,67.00076296
174,96.00000000,67.00076296
175,96.00000000,67.00076296
176,96.00000000,66.00018311
177,96.00000000,66.00018311
178,96.00000000,66.00018311
179,96.00000000,67.00076296
180,96.00000000,67.00076296
181,96.00000000,67.00076296
182,96.00000000,67.00076296
183,96.00000000,66.00018311
184,96.00000000,66.00018311
185,96.00000000,65.00039674
186,96.99990844,65.00039674
187,96.99990844,67.00076296
188,96.99990844,67.00076296
189,96.99990844,67.00076296
190,96.99990844,68.00054933
191,96.99990844,69.00033570
192,96.99990844,69.00033570
193,96.00000000,68.00054933
194,96.00000000,68.00054933
195,96.00000000,67.00076296
196,96.00000000,67.00076296
197,96.00000000,67.00076296
198,96.00000000,67.00076296
199,96.00000000,67.00076296
200,96.00000000,67.00076296
201,96.00000000,67.00076296
202,96.00000000,67.00076296
203,96.00000000,67.00076296
204,96.00000000,66.00018311
205,96.00000000,65.00039674
206,96.00000000,64.00061037
207,96.00000000,63.00003052
208,96.00000000,63.00003052
209,96.00000000,63.00003052
210,96.00000000,63.00003052
211,96.00000000,63.00003052
212,96.00000000,63.00003052
213,96.00000000,63.00003052
214,96.00000000,63.00003052
215,96.00000000,63.00003052
216,96.00000000,63.00003052
217,96.00000000,63.00003052
218,96.00000000,63.00003052
219,96.00000000,63.00003052
220,96.00000000,62.00024415
221,96.00000000,63.00003052
222,96.00000000,63.00003052
223,96.00000000,63.00003052
224,96.00000000,63.00003052
225,96.00000000,63.00003052
226,96.00000000,63.00003052
227,96.00000000,63.00003052
228,96.00000000,63.00003052
229,96.00000000,62.00024415
230,96.00000000,61.00045778
231,96.00000000,61.00045778
232,96.00000000,60.00067141
233,94.99996948,60.00067141
234,94.99996948,61.00045778
235,94.99996948,61.00045778
236,94.99996948,61.00045778
237,94.99996948,61.00045778
238,94.99996948,62.00024415
239,94.99996948,62.00024415
240,94.99996948,63.00003052
241,94.99996948,63.00003052
242,94.99996948,63.00003052
243,94.99996948,64.00061037
244,94.99996948,64.00061037
245,94.99996948,64.00061037
246,96.00000000,65.00039674
247,96.00000000,65.00039674
248,96.00000000,65.00039674
249,96.00000000,66.00018311
250,96.00000000,66.00018311
251,96.00000000,67.00076296
252,96.00000000,68.00054933
253,96.00000000,68.00054933
254,96.00000000,68.00054933
255,96.00000000,69.00033570
256,96.00000000,69.00033570
257,96.00000000,69.00033570
258,96.00000000,69.00033570
259,96.00000000,69.00033570
260,96.00000000,69.00033570
261,96.00000000,69.00033570
262,96.00000000,69.00033570
263,96.00000000,70.00012207
264,96.00000000,70.00012207
265,96.00000000,70.00012207
266,96.00000000,71.00070193
267,96.00000000,72.00048830
268,96.00000000,72.00048830
269,96.00000000,72.00048830
270,96.00000000,73.00027467
271,96.00000000,73.00027467
272,96.00000000,72.00048830
273,96.00000000,71.00070193
274,96.00000000,71.00070193
275,96.00000000,70.00012207
276,96.00000000,69.00033570
277,96.00000000,69.00033570
278,96.00000000,68.00054933
279,96.00000000,67.00076296
280,96.00000000,67.00076296
281,96.00000000,67.00076296
282,96.00000000,67.00076296
283,96.00000000,67.00076296
284,96.00000000,68.00054933
285,96.00000000,68.00054933
286,96.00000000,68.00054933
287,96.00000000,68.00054933
288,96.00000000,68.00054933
289,96.00000000,69.00033570
290,96.00000000,69.00033570
291,96.00000000,69.00033570
292,96.00000000,69.00033570
293,96.00000000,69.00033570
294,96.00000000,68.00054933
295,96.00000000,68.00054933
296,96.00000000,67.00076296
297,94.99996948,67.00076296
298,94.99996948,66.00018311
299,94.99996948,66.00018311
300,94.99996948,66.00018311
301,96.00000000,67.00076296
302,96.00000000,66.00018311
303,96.00000000,65.00039674
304,96.00000000,64.00061037
305,96.00000000,63.00003052
306,96.00000000,62.00024415
307,96.00000000,62.00024415
308,96.00000000,62.00024415
309,96.00000000,62.00024415
310,96.00000000,62.00024415
311,96.00000000,62.00024415
312,96.00000000,62.00024415
313,96.00000000,62.00024415
314,96.00000000,62.00024415
315,96.00000000,62.00024415
316,96.00000000,62.00024415
317,96.00000000,62.00024415
318,96.00000000,62.00024415
319,94.99996948,62.00024415
320,94.99996948,63.00003052
321,94.99996948,63.00003052
322,94.99996948,65.00039674
323,94.99996948,65.00039674
324,94.99996948,66.00018311
325,94.99996948,66.00018311
326,94.99996948,66.00018311
327,94.99996948,66.00018311
328,94.99996948,66.00018311
329,94.99996948,66.00018311
330,94.99996948,66.00018311
331,94.99996948,66.00018311
332,94.99996948,66.00018311
333,94.99996948,67.00076296
334,94.99996948,67.00076296
335,94.99996948,66.00018311
336,94.99996948,66.00018311
337,94.99996948,66.00018311
338,96.00000000,66.00018311
339,96.00000000,66.00018311
340,96.00000000,67.00076296
341,96.00000000,67.00076296
342,96.00000000,68.00054933
343,96.00000000,71.00070193
344,96.00000000,72.00048830
345,96.00000000,72.00048830
346,96.00000000,73.00027467
347,96.00000000,73.00027467
348,96.00000000,73.00027467
349,96.00000000,73.00027467
350,96.00000000,73.00027467
351,96.00000000,73.00027467
352,96.00000000,74.00006104
353,96.00000000,74.00006104
354,96.00000000,74.00006104
355,96.00000000,74.00006104
356,94.99996948,73.00027467
357,96.00000000,77.00021363
358,96.00000000,77.00021363
359,96.00000000,77.00021363
360,94.99996948,82.00073244
361,94.99996948,87.99945067
362,94.99996948,92.99996948
363,94.99996948,96.99990844
364,94.99996948,100.99984741
365,94.99996948,100.99984741
366,96.00000000,104.99978637
367,96.00000000,107.99993896
368,96.00000000,108.99972533
369,96.00000000,108.99972533
370,96.00000000,104.00000000
371,96.00000000,97.99969481
372,96.00000000,92.99996948
373,96.00000000,88.99923704
374,96.00000000,82.99972533
375,96.00000000,80.00036622
376,96.00000000,78.00000000
377,96.00000000,78.00000000
378,96.00000000,77.00021363
379,96.00000000,75.00064089
380,96.00000000,75.00064089
381,96.00000000,76.00042726
382,96.00000000,76.00042726
383,96.00000000,77.00021363
384,96.00000000,77.00021363
385,96.00000000,77.00021363
386,96.00000000,76.00042726
387,96.00000000,76.00042726
388,96.00000000,76.00042726
389,96.00000000,75.00064089
390,96.00000000,75.00064089
391,96.00000000,75.00064089
392,96.00000000,75.00064089
393,96.00000000,76.00042726
394,96.00000000,76.00042726
395,96.00000000,75.00064089
396,96.00000000,75.00064089
397,96.00000000,75.00064089
398,96.00000000,75.00064089
399,96.00000000,75.00064089
400,96.00000000,75.00064089
401,96.00000000,76.00042726
402,96.00000000,76.00042726
403,96.00000000,75.00064089
404,96.00000000,75.00064089
405,94.99996948,75.00064089
406,94.99996948,74.00006104
407,94.99996948,74.00006104
408,94.99996948,74.00006104
409,94.99996948,75.00064089
410,94.99996948,75.00064089
411,94.99996948,75.00064089
412,94.99996948,75.00064089
413,94.99996948,75.00064089
414,94.99996948,75.00064089
415,94.99996948,76.00042726
416,94.99996948,76.00042726
417,94.99996948,75.00064089
418,94.99996948,75.00064089
419,94.99996948,75.00064089
420,94.99996948,75.00064089
421,94.99996948,75.00064089
422,94.99996948,75.00064089
423,94.99996948,75.00064089
424,94.99996948,75.00064089
425,94.99996948,75.00064089
426,94.99996948,75.00064089
427,94.99996948,75.00064089
428,94.99996948,75.00064089
429,94.99996948,75.00064089
430,94.99996948,75.00064089
431,94.99996948,75.00064089
432,94.99996948,76.00042726
433,96.00000000,76.00042726
434,96.00000000,77.00021363
435,96.00000000,77.00021363
436,96.00000000,78.00000000
437,96.00000000,77.00021363
438,96.00000000,77.00021363
439,96.00000000,77.00021363
440,96.00000000,77.00021363
441,96.00000000,77.00021363
442,96.00000000,77.00021363
443,96.00000000,77.00021363
444,96.00000000,77.00021363
445,94.99996948,76.00042726
446,94.99996948,76.00042726
447,93.99993896,73.00027467
448,93.99993896,73.00027467
449,93.99993896,73.00027467
450,93.99993896,73.00027467
451,93.99993896,73.00027467
452,93.99993896,73.00027467
453,93.99993896,70.00012207
454,93.99993896,70.00012207
455,93.99993896,70.00012207
456,93.99993896,70.00012207
457,93.99993896,69.00033570
458,93.99993896,68.00054933
459,93.99993896,68.00054933
460,93.99993896,66.00018311
461,93.99993896,63.00003052
462,93.99993896,64.00061037
463,93.99993896,64.00061037
464,93.99993896,64.00061037
465,93.99993896,64.00061037
466,93.99993896,64.00061037
467,93.99993896,64.00061037
468,93.99993896,66.00018311
469,93.99993896,66.00018311
470,93.99993896,66.00018311
471,93.99993896,66.00018311
472,93.99993896,66.00018311
473,93.99993896,71.00070193
474,93.99993896,71.00070193
475,93.99993896,71.00070193
476,93.99993896,77.00021363
477,93.99993896,80.00036622
478,93.99993896,80.00036622
479,93.99993896,80.00036622
480,93.99993896,80.00036622
481,93.99993896,82.00073244
482,93.99993896,82.00073244
483,93.99993896,82.00073244
484,93.99993896,82.00073244
485,93.99993896,82.00073244
486,93.99993896,82.00073244
487,93.99993896,82.00073244
488,93.99993896,82.00073244
489,93.99993896,82.00073244
490,93.99993896,82.00073244
491,93.99993896,82.00073244
492,93.99993896,82.00073244
493,93.00003052,81.00015259
494,93.00003052,81.00015259
495,93.00003052,82.00073244
496,93.00003052,82.00073244
497,93.99993896,83.99951170
498,93.99993896,84.99929807
499,93.99993896,89.99981689
500,93.99993896,91.99938963
501,93.99993896,91.99938963
502,93.99993896,92.99996948
503,94.99996948,92.99996948
504,94.99996948,93.99975585
505,94.99996948,93.99975585
506,94.99996948,93.99975585
507,94.99996948,93.99975585
508,94.99996948,93.99975585
509,93.99993896,93.99975585
510,93.99993896,93.99975585
511,93.99993896,93.99975585
512,93.99993896,93.99975585
513,93.99993896,93.99975585
514,93.99993896,93.99975585
515,93.99993896,93.99975585
516,93.99993896,93.99975585
517,93.99993896,94.99954222
518,93.99993896,95.99932859
519,93.99993896,97.99969481
520,93.99993896,98.99948119
521,93.99993896,98.99948119
522,93.99993896,98.99948119
523,93.99993896,98.99948119
524,93.99993896,98.99948119
525,93.99993896,98.99948119
526,93.99993896,98.99948119
527,93.99993896,97.99969481
528,93.99993896,97.99969481
529,93.99993896,97.99969481
530,93.99993896,97.99969481
531,93.99993896,98.99948119
532,93.99993896,104.00000000
533,93.99993896,104.00000000
534,93.99993896,104.99978637
535,93.99993896,104.99978637
536,93.99993896,104.99978637
537,93.99993896,104.99978637
538,93.99993896,104.00000000
539,93.99993896,101.99963378
540,93.99993896,101.99963378
541,93.99993896,93.99975585
542,93.99993896,82.99972533
543,93.99993896,83.99951170
544,93.99993896,83.99951170
545,93.99993896,83.99951170
546,93.99993896,83.99951170
547,93.99993896,83.99951170
548,93.99993896,83.99951170
549,93.99993896,83.99951170
550,93.99993896,83.99951170
551,93.99993896,83.99951170
552,93.99993896,84.99929807
553,93.99993896,84.99929807
554,93.99993896,83.99951170
555,93.99993896,83.99951170
556,93.99993896,83.99951170
557,93.99993896,83.99951170
558,93.99993896,82.99972533
559,93.99993896,81.00015259
560,93.99993896,81.00015259
561,93.99993896,81.00015259
562,93.99993896,81.00015259
563,93.99993896,79.00057985
564,93.00003052,77.00021363
565,93.00003052,75.00064089
566,93.00003052,71.00070193
567,93.00003052,71.00070193
568,93.00003052,71.00070193
569,93.00003052,71.00070193
570,93.00003052,71.00070193
571,93.00003052,71.00070193
572,93.00003052,70.00012207
573,93.00003052,69.00033570
574,93.00003052,67.00076296
575,93.00003052,67.00076296
576,93.00003052,67.00076296
577,93.00003052,68.00054933
578,93.00003052,67.00076296
579,93.00003052,67.00076296
580,93.00003052,67.00076296
581,93.00003052,67.00076296
582,93.00003052,66.00018311
583,93.00003052,65.00039674
584,93.00003052,63.00003052
585,93.00003052,63.00003052
586,93.00003052,63.00003052
587,93.00003052,63.00003052
588,93.00003052,63.00003052
589,93.00003052,63.00003052
590,93.00003052,62.00024415
591,93.00003052,62.00024415
592,93.00003052,62.00024415
593,93.00003052,62.00024415
594,93.00003052,62.00024415
595,93.00003052,62.00024415
596,93.00003052,63.00003052
597,93.00003052,63.00003052
598,93.00003052,64.00061037
599,93.00003052,64.00061037
600,94.99996948,64.00061037
601,93.99993896,72.00048830
602,93.99993896,74.00006104
603,93.99993896,74.00006104
604,93.99993896,82.99972533
605,93.99993896,82.99972533
606,93.99993896,86.99966430
607,94.99996948,86.99966430
608,94.99996948,88.99923704
609,94.99996948,94.99954222
610,93.99993896,94.99954222
611,93.99993896,94.99954222
612,93.99993896,94.99954222
613,93.99993896,94.99954222
614,93.99993896,94.99954222
615,93.99993896,94.99954222
616,93.99993896,94.99954222
617,93.99993896,95.99932859
618,93.99993896,95.99932859
619,93.99993896,95.99932859
620,93.99993896,97.99969481
621,93.99993896,97.99969481
622,93.99993896,97.99969481
623,93.99993896,97.99969481
624,93.99993896,99.99926756
625,93.99993896,100.99984741
626,94.99996948,94.99954222
627,94.99996948,94.99954222
628,94.99996948,94.99954222
629,94.99996948,94.99954222
630,94.99996948,94.99954222
631,94.99996948,97.99969481
632,94.99996948,97.99969481
633,94.99996948,98.99948119
634,94.99996948,99.99926756
635,94.99996948,97.99969481
636,94.99996948,96.99990844
637,94.99996948,90.99960326
638,93.99993896,83.99951170
639,93.99993896,78.00000000
640,93.99993896,66.00018311
641,94.99996948,66.00018311
642,94.99996948,68.00054933
643,96.00000000,74.00006104
644,96.00000000,74.00006104
645,96.00000000,86.99966430
646,96.00000000,91.99938963
647,94.99996948,91.99938963
648,94.99996948,93.99975585
649,94.99996948,93.99975585
650,94.99996948,93.99975585
651,94.99996948,93.99975585
652,94.99996948,93.99975585
653,94.99996948,93.99975585
654,94.99996948,96.99990844
655,94.99996948,96.99990844
656,94.99996948,96.99990844
657,94.99996948,96.99990844
658,94.99996948,97.99969481
659,94.99996948,97.99969481
660,94.99996948,97.99969481
661,94.99996948,98.99948119
662,94.99996948,98.99948119
663,94.99996948,99.99926756
664,94.99996948,99.99926756
665,94.99996948,99.99926756
666,94.99996948,99.99926756
667,94.99996948,99.99926756
668,94.99996948,99.99926756
669,94.99996948,99.99926756
670,94.99996948,99.99926756
671,94.99996948,99.99926756
672,94.99996948,99.99926756
673,94.99996948,97.99969481
674,94.99996948,94.99954222
675,94.99996948,93.99975585
676,96.00000000,90.99960326
677,94.99996948,89.99981689
678,94.99996948,89.99981689
679,96.00000000,87.99945067
680,96.00000000,85.99987793
681,96.00000000,82.99972533
682,96.00000000,81.00015259
683,96.00000000,78.00000000
684,96.00000000,77.00021363
685,96.00000000,77.00021363
686,96.00000000,80.00036622
687,96.00000000,81.00015259
688,96.00000000,82.99972533
689,96.00000000,82.99972533
690,96.00000000,82.00073244
691,94.99996948,81.00015259
692,94.99996948,80.00036622
693,94.99996948,79.00057985
694,94.99996948,79.00057985
695,94.99996948,78.00000000
696,96.00000000,76.00042726
697,96.00000000,76.00042726
698,96.00000000,76.00042726
699,96.00000000,75.00064089
700,96.00000000,73.00027467
701,96.00000000,72.00048830
702,96.00000000,71.00070193
703,96.00000000,70.00012207
704,96.00000000,68.00054933
705,96.99990844,68.00054933
706,96.99990844,67.00076296
707,96.99990844,67.00076296
708,96.99990844,66.00018311
709,96.99990844,66.00018311
710,96.99990844,65.00039674
711,96.99990844,65.00039674
712,96.99990844,64.00061037
713,96.99990844,63.00003052
714,96.00000000,63.00003052
715,96.00000000,63.00003052
716,96.00000000,63.00003052
717,96.00000000,63.00003052
718,96.00000000,63.00003052
719,96.00000000,63.00003052
720,96.00000000,63.00003052
721,96.00000000,63.00003052
722,96.00000000,62.00024415
723,96.00000000,62.00024415
724,96.00000000,62.00024415
725,96.00000000,62.00024415
726,96.00000000,62.00024415
727,96.00000000,63.00003052
728,96.00000000,63.00003052
729,96.00000000,63.00003052
730,96.00000000,63.00003052
731,96.00000000,63.00003052
732,96.00000000,63.00003052
733,96.00000000,63.00003052
734,96.00000000,63.00003052
735,96.00000000,63.00003052
736,96.00000000,63.00003052
737,96.00000000,63.00003052
738,96.00000000,63.00003052
739,96.00000000,64.00061037
740,96.00000000,64.00061037
741,96.00000000,63.00003052
742,96.00000000,62.00024415
743,96.00000000,61.00045778
744,96.00000000,61.00045778
745,96.00000000,61.00045778
746,96.00000000,61.00045778
747,96.00000000,61.00045778
748,96.00000000,61.00045778
749,96.00000000,62.00024415
750,96.00000000,62.00024415
751,96.00000000,62.00024415
752,96.00000000,62.00024415
753,96.00000000,62.00024415
754,96.00000000,61.00045778
755,96.00000000,61.00045778
756,96.00000000,61.00045778
757,96.00000000,61.00045778
758,96.00000000,61.00045778
759,96.00000000,61.00045778
760,96.00000000,60.00067141
761,96.00000000,60.00067141
762,96.00000000,60.00067141
763,96.00000000,60.00067141
764,96.00000000,61.00045778
765,96.00000000,60.00067141
766,96.00000000,60.00067141
767,96.00000000,60.00067141
768,96.00000000,60.00067141
769,96.00000000,60.00067141
770,96.00000000,60.00067141
771,96.00000000,60.00067141
772,96.00000000,60.00067141
773,96.00000000,60.00067141
774,96.00000000,60.00067141
775,96.00000000,60.00067141
776,96.00000000,60.00067141
777,96.00000000,60.00067141
778,96.00000000,60.00067141
779,96.00000000,60.00067141
780,96.00000000,60.00067141
781,96.00000000,60.00067141
782,96.00000000,60.00067141
783,96.00000000,60.00067141
784,96.00000000,61.00045778
785,96.00000000,61.00045778
786,96.00000000,61.00045778
787,96.00000000,62.00024415
788,96.00000000,62.00024415
789,96.00000000,62.00024415
790,96.00000000,62.00024415
791,96.00000000,62.00024415
792,96.00000000,62.00024415
793,96.00000000,62.00024415
794,96.00000000,63.00003052
795,96.00000000,63.00003052
796,96.00000000,63.00003052
797,96.00000000,63.00003052
798,96.00000000,63.00003052
799,96.00000000,63.00003052
800,96.00000000,63.00003052
801,96.00000000,63.00003052
802,96.00000000,63.00003052
803,96.00000000,63.00003052
804,96.00000000,63.00003052
805,96.00000000,63.00003052
806,96.00000000,63.00003052
807,96.00000000,63.00003052
808,96.00000000,63.00003052
809,96.00000000,63.00003052
810,96.00000000,63.00003052
811,94.99996948,63.00003052
812,94.99996948,63.00003052
813,94.99996948,63.00003052
814,94.99996948,63.00003052
815,94.99996948,63.00003052
816,94.99996948,63.00003052
817,94.99996948,63.00003052
818,94.99996948,63.00003052
819,94.99996948,63.00003052
820,94.99996948,63.00003052
821,94.99996948,63.00003052
822,94.99996948,63.00003052
823,94.99996948,63.00003052
824,94.99996948,63.00003052
825,94.99996948,63.00003052
826,94.99996948,62.00024415
827,94.99996948,62.00024415
828,94.99996948,62.00024415
829,94.99996948,61.00045778
830,94.99996948,61.00045778
831,94.99996948,61.00045778
832,94.99996948,61.00045778
833,94.99996948,61.00045778
834,94.99996948,61.00045778
835,94.99996948,62.00024415
836,94.99996948,62.00024415
837,94.99996948,62.00024415
838,94.99996948,62.00024415
839,94.99996948,62.00024415
840,94.99996948,63.00003052
841,94.99996948,63.00003052
842,94.99996948,63.00003052
843,94.99996948,63.00003052
844,94.99996948,63.00003052
845,94.99996948,63.00003052
846,94.99996948,63.00003052
847,94.99996948,63.00003052
848,94.99996948,63.00003052
849,94.99996948,64.00061037
850,94.99996948,65.00039674
851,96.00000000,65.00039674
852,96.00000000,65.00039674
853,96.00000000,65.00039674
854,96.00000000,64.00061037
855,94.99996948,64.00061037
856,94.99996948,64.00061037
857,94.99996948,64.00061037
858,94.99996948,64.00061037
859,94.99996948,64.00061037
860,94.99996948,64.00061037
861,94.99996948,64.00061037
862,94.99996948,64.00061037
863,94.99996948,65.00039674
864,96.00000000,65.00039674
865,96.00000000,64.00061037
866,96.00000000,64.00061037
867,94.99996948,64.00061037
868,94.99996948,63.00003052
869,94.99996948,63.00003052
870,94.99996948,63.00003052
871,94.99996948,63.00003052
872,94.99996948,63.00003052
873,94.99996948,63.00003052
874,94.99996948,63.00003052
875,94.99996948,63.00003052
876,94.99996948,62.00024415
877,94.99996948,62.00024415
878,94.99996948,62.00024415
879,94.99996948,62.00024415
880,94.99996948,62.00024415
881,94.99996948,63.00003052
882,94.99996948,64.00061037
883,94.99996948,64.00061037
884,94.99996948,64.00061037
885,94.99996948,64.00061037
886,94.99996948,63.00003052
887,94.99996948,63.00003052
888,94.99996948,63.00003052
889,94.99996948,63.00003052
890,94.99996948,63.00003052
891,94.99996948,63.00003052
892,94.99996948,63.00003052
893,94.99996948,63.00003052
894,94.99996948,63.00003052
895,94.99996948,62.00024415
896,94.99996948,62.00024415
897,94.99996948,62.00024415
898,94.99996948,62.00024415
899,94.99996948,62.00024415
900,94.99996948,62.00024415
901,94.99996948,62.00024415
902,94.99996948,62.00024415
903,94.99996948,62.00024415
904,94.99996948,62.00024415
905,94.99996948,62.00024415
906,94.99996948,62.00024415
907,94.99996948,62.00024415
908,94.99996948,62.00024415
909,94.99996948,62.00024415
910,94.99996948,62.00024415
911,94.99996948,62.00024415
912,94.99996948,63.00003052
913,94.99996948,63.00003052
914,94.99996948,63.00003052
915,94.99996948,63.00003052
916,94.99996948,63.00003052
917,94.99996948,63.00003052
918,94.99996948,63.00003052
919,94.99996948,64.00061037
920,94.99996948,64.00061037
921,94.99996948,64.00061037
922,94.99996948,66.00018311
923,94.99996948,66.00018311
924,94.99996948,66.00018311
925,94.99996948,67.00076296
926,94.99996948,67.00076296
927,96.99990844,83.99951170
928,96.99990844,83.99951170
929,96.99990844,84.99929807
930,96.99990844,85.99987793
931,96.00000000,83.99951170
932,96.00000000,82.99972533
933,96.00000000,82.00073244
934,96.00000000,81.00015259
935,96.00000000,81.00015259
936,96.00000000,81.00015259
937,96.00000000,82.99972533
938,96.00000000,84.99929807
939,96.00000000,85.99987793
940,96.00000000,86.99966430
941,96.00000000,87.99945067
942,96.00000000,85.99987793
943,96.00000000,85.99987793
944,96.00000000,85.99987793
945,96.00000000,85.99987793
946,96.00000000,86.99966430
947,96.00000000,87.99945067
948,96.00000000,88.99923704
949,96.00000000,86.99966430
950,96.99990844,86.99966430
951,96.99990844,85.99987793
952,96.99990844,85.99987793
953,96.99990844,86.99966430
954,96.99990844,87.99945067
955,96.00000000,85.99987793
956,96.00000000,85.99987793
957,96.00000000,84.99929807
958,96.00000000,83.99951170
959,96.00000000,83.99951170
960,96.00000000,83.99951170
961,96.00000000,83.99951170
962,96.00000000,83.99951170
963,96.00000000,83.99951170
964,96.00000000,83.99951170
965,96.00000000,82.99972533
966,96.00000000,83.99951170
967,96.00000000,83.99951170
968,96.00000000,65.00039674
969,96.00000000,65.00039674
970,96.00000000,65.00039674
971,96.00000000,69.00033570
972,94.99996948,74.00006104
973,94.99996948,74.00006104
974,94.99996948,80.00036622
975,94.99996948,80.00036622
976,96.00000000,83.99951170
977,96.00000000,85.99987793
978,96.00000000,85.99987793
979,96.00000000,87.99945067
980,96.00000000,92.99996948
981,96.00000000,92.99996948
982,96.00000000,92.99996948
983,96.00000000,93.99975585
984,96.00000000,94.99954222
985,96.00000000,94.99954222
986,96.00000000,94.99954222
987,96.00000000,94.99954222
988,96.00000000,94.99954222
989,96.00000000,95.99932859
990,96.00000000,97.99969481
991,96.00000000,101.99963378
992,96.00000000,101.99963378
993,96.00000000,101.99963378
994,96.00000000,102.99942015
995,96.00000000,98.99948119
996,94.99996948,93.99975585
997,94.99996948,90.99960326
998,94.99996948,87.99945067
999,94.99996948,84.99929807
1000,94.99996948,82.99972533
1001,94.99996948,82.00073244
1002,94.99996948,82.00073244
1003,94.99996948,82.00073244
1004,94.99996948,82.00073244
1005,94.99996948,82.00073244
1006,94.99996948,81.00015259
1007,94.99996948,80.00036622
1008,94.99996948,80.00036622
1009,94.99996948,80.00036622
1010,94.99996948,80.00036622
1011,94.99996948,81.00015259
1012,94.99996948,81.00015259
1013,94.99996948,81.00015259
1014,94.99996948,80.00036622
1015,94.99996948,80.00036622
1016,94.99996948,80.00036622
1017,94.99996948,80.00036622
1018,94.99996948,80.00036622
1019,94.99996948,79.00057985
1020,94.99996948,79.00057985
1021,94.99996948,78.00000000
1022,94.99996948,77.00021363
1023,94.99996948,77.00021363
1024,94.99996948,77.00021363
1025,94.99996948,77.00021363
1026,96.00000000,78.00000000
1027,96.00000000,78.00000000
1028,96.00000000,79.00057985
1029,96.00000000,82.00073244
1030,96.00000000,82.00073244
1031,96.00000000,82.00073244
1032,96.00000000,82.00073244
1033,96.00000000,80.00036622
1034,96.00000000,79.00057985
1035,96.00000000,78.00000000
1036,96.00000000,77.00021363
1037,96.00000000,78.00000000
1038,96.00000000,77.00021363
1039,96.00000000,77.00021363
1040,96.00000000,77.00021363
1041,96.00000000,76.00042726
1042,96.99990844,76.00042726
1043,96.99990844,76.00042726
1044,96.99990844,76.00042726
1045,96.99990844,76.00042726
1046,96.99990844,77.00021363
1047,96.99990844,77.00021363
1048,96.99990844,76.00042726
1049,96.99990844,75.00064089
1050,96.99990844,75.00064089
1051,96.99990844,76.00042726
1052,96.99990844,76.00042726
1053,96.99990844,76.00042726
1054,96.99990844,75.00064089
1055,96.99990844,75.00064089
1056,96.99990844,74.00006104
1057,96.99990844,74.00006104
1058,96.99990844,74.00006104
1059,96.99990844,75.00064089
1060,96.99990844,76.00042726
1061,96.99990844,76.00042726
1062,96.99990844,76.00042726
1063,96.99990844,76.00042726
1064,96.99990844,75.00064089
1065,96.99990844,74.00006104
1066,96.99990844,73.00027467
1067,96.99990844,74.00006104
1068,96.99990844,74.00006104
1069,96.99990844,75.00064089
1070,96.99990844,76.00042726
1071,96.99990844,76.00042726
1072,96.99990844,76.00042726
1073,96.99990844,76.00042726
1074,96.99990844,76.00042726
1075,96.99990844,76.00042726
1076,96.99990844,75.00064089
1077,96.99990844,74.00006104
1078,96.99990844,74.00006104
1079,96.99990844,75.00064089
1080,96.99990844,77.00021363
1081,96.99990844,77.00021363
1082,96.99990844,77.00021363
1083,96.99990844,76.00042726
1084,96.99990844,75.00064089
1085,96.99990844,75.00064089
1086,96.99990844,75.00064089
1087,96.99990844,76.00042726
1088,96.99990844,75.00064089
1089,96.99990844,76.00042726
1090,96.99990844,77.00021363
1091,96.99990844,76.00042726
1092,96.99990844,76.00042726
1093,96.99990844,76.00042726
1094,96.99990844,76.00042726
1095,96.99990844,76.00042726
1096,96.99990844,76.00042726
1097,96.99990844,76.00042726
1098,96.99990844,76.00042726
1099,96.99990844,77.00021363
1100,96.99990844,77.00021363
1101,97.99993896,78.00000000
1102,97.99993896,79.00057985
1103,96.99990844,79.00057985
1104,96.99990844,78.00000000
1105,96.99990844,78.00000000
1106,96.99990844,76.00042726
1107,96.99990844,76.00042726
1108,96.99990844,76.00042726
1109,96.99990844,75.00064089
1110,96.99990844,75.00064089
1111,96.99990844,75.00064089
1112,96.99990844,75.00064089
1113,96.99990844,76.00042726
1114,96.99990844,76.00042726
1115,96.99990844,77.00021363
1116,96.99990844,77.00021363
1117,96.99990844,77.00021363
1118,96.99990844,77.00021363
1119,97.99993896,77.00021363
1120,97.99993896,76.00042726
1121,97.99993896,75.00064089
1122,97.99993896,75.00064089
1123,97.99993896,76.00042726
1124,97.99993896,77.00021363
1125,97.99993896,77.00021363
1126,97.99993896,76.00042726
1127,96.99990844,77.00021363
1128,96.99990844,76.00042726
1129,96.99990844,76.00042726
1130,96.99990844,77.00021363
1131,96.99990844,77.00021363
1132,96.99990844,76.00042726
1133,96.99990844,76.00042726
1134,96.99990844,76.00042726
1135,96.99990844,76.00042726
1136,97.99993896,76.00042726
1137,97.99993896,75.00064089
1138,97.99993896,76.00042726
1139,96.99990844,76.00042726
1140,96.99990844,77.00021363
1141,96.99990844,78.00000000
1142,96.99990844,79.00057985
1143,97.99993896,79.00057985
1144,97.99993896,78.00000000
1145,97.99993896,77.00021363
1146,96.99990844,76.00042726
1147,96.99990844,76.00042726
1148,97.99993896,77.00021363
1149,97.99993896,76.00042726
1150,97.99993896,77.00021363
1151,97.99993896,76.00042726
1152,96.99990844,75.00064089
1153,96.99990844,74.00006104
1154,96.99990844,74.00006104
1155,96.99990844,75.00064089
1156,97.99993896,76.00042726
1157,97.99993896,77.00021363
1158,97.99993896,76.00042726
1159,97.99993896,74.00006104
1160,97.99993896,73.00027467
1161,97.99993896,72.00048830
1162,96.99990844,73.00027467
1163,96.99990844,74.00006104
1164,96.99990844,74.00006104
1165,96.99990844,75.00064089
1166,96.99990844,76.00042726
1167,96.99990844,76.00042726
1168,96.99990844,76.00042726
1169,96.99990844,76.00042726
1170,96.99990844,76.00042726
1171,96.99990844,75.00064089
1172,96.99990844,75.00064089
1173,96.99990844,75.00064089
1174,96.99990844,74.00006104
1175,96.99990844,74.00006104
1176,96.99990844,73.00027467
1177,96.99990844,73.00027467
1178,96.99990844,73.00027467
1179,96.99990844,73.00027467
1180,96.99990844,73.00027467
1181,96.99990844,73.00027467
1182,96.99990844,73.00027467
1183,96.99990844,74.00006104
1184,96.99990844,74.00006104
1185,96.99990844,75.00064089
1186,96.99990844,75.00064089
1187,96.99990844,75.00064089
1188,96.99990844,75.00064089
1189,96.99990844,75.00064089
1190,96.99990844,75.00064089
1191,96.99990844,75.00064089
1192,96.99990844,75.00064089
1193,96.99990844,75.00064089
1194,96.99990844,75.00064089
1195,96.99990844,75.00064089
1196,96.99990844,74.00006104
1197,96.99990844,74.00006104
1198,96.99990844,74.00006104
1199,96.99990844,75.00064089
1200,96.99990844,75.00064089
1201,97.99993896,75.00064089
1202,97.99993896,74.00006104
1203,96.99990844,73.00027467
1204,96.99990844,73.00027467
1205,96.99990844,73.00027467
1206,96.99990844,72.00048830
1207,96.99990844,72.00048830
1208,96.99990844,72.00048830
1209,96.99990844,72.00048830
1210,96.99990844,72.00048830
1211,96.99990844,73.00027467
1212,96.99990844,74.00006104
1213,96.99990844,77.00021363
1214,96.99990844,77.00021363
1215,96.99990844,80.00036622
1216,96.99990844,81.00015259
1217,96.99990844,81.00015259
1218,96.99990844,81.00015259
1219,96.99990844,80.00036622
1220,96.99990844,77.00021363
1221,96.99990844,77.00021363
1222,96.99990844,76.00042726
1223,96.99990844,76.00042726
1224,96.99990844,75.00064089
1225,96.99990844,75.00064089
1226,96.99990844,75.00064089
1227,96.99990844,75.00064089
1228,96.99990844,74.00006104
1229,96.99990844,72.00048830
1230,96.99990844,71.00070193
1231,96.99990844,71.00070193
1232,96.99990844,71.00070193
1233,96.00000000,73.00027467
1234,96.00000000,73.00027467
1235,96.00000000,74.00006104
1236,96.00000000,74.00006104
1237,96.00000000,74.00006104
1238,96.00000000,74.00006104
1239,96.00000000,73.00027467
1240,96.00000000,73.00027467
1241,96.00000000,72.00048830
1242,96.00000000,72.00048830
1243,96.00000000,72.00048830
1244,96.99990844,72.00048830
1245,96.99990844,73.00027467
1246,96.99990844,73.00027467
1247,96.99990844,73.00027467
1248,96.99990844,75.00064089
1249,96.99990844,77.00021363
1250,96.99990844,79.00057985
1251,96.99990844,79.00057985
1252,96.99990844,81.00015259
1253,96.99990844,81.00015259
1254,96.99990844,82.00073244
1255,97.99993896,82.00073244
1256,97.99993896,81.00015259
1257,97.99993896,80.00036622
1258,96.99990844,80.00036622
1259,96.99990844,79.00057985
1260,96.99990844,78.00000000
1261,96.99990844,77.00021363
1262,96.99990844,77.00021363
1263,96.99990844,77.00021363
1264,96.99990844,77.00021363
1265,96.99990844,77.00021363
1266,96.99990844,78.00000000
1267,96.99990844,77.00021363
1268,96.99990844,77.00021363
1269,96.99990844,77.00021363
1270,96.99990844,78.00000000
1271,96.99990844,78.00000000
1272,96.99990844,78.00000000
1273,96.99990844,78.00000000
1274,96.99990844,77.00021363
1275,96.99990844,75.00064089
1276,96.99990844,75.00064089
1277,96.99990844,75.00064089
1278,96.99990844,73.00027467
1279,96.99990844,73.00027467
1280,96.99990844,72.00048830
1281,96.99990844,71.00070193
1282,96.99990844,71.00070193
1283,96.99990844,71.00070193
1284,96.99990844,71.00070193
1285,96.99990844,71.00070193
1286,96.99990844,70.00012207
1287,96.99990844,70.00012207
1288,96.99990844,69.00033570
1289,96.99990844,69.00033570
1290,96.99990844,69.00033570
1291,96.99990844,70.00012207
1292,96.99990844,70.00012207
1293,96.99990844,71.00070193
1294,96.99990844,71.00070193
1295,96.99990844,70.00012207
1296,96.99990844,70.00012207
1297,96.00000000,70.00012207
1298,96.00000000,70.00012207
1299,96.00000000,70.00012207
1300,96.99990844,71.00070193
1301,96.99990844,71.00070193
1302,96.99990844,71.00070193
1303,96.99990844,71.00070193
1304,96.99990844,71.00070193
1305,96.99990844,71.00070193
1306,96.99990844,70.00012207
1307,96.99990844,70.00012207
1308,96.99990844,70.00012207
1309,96.99990844,70.00012207
1310,96.99990844,71.00070193
1311,96.99990844,72.00048830
1312,96.99990844,72.00048830
1313,96.99990844,72.00048830
1314,96.99990844,72.00048830
1315,96.99990844,72.00048830
1316,96.99990844,72.00048830
1317,96.99990844,72.00048830
1318,96.99990844,72.00048830
1319,96.99990844,73.00027467
1320,96.99990844,72.00048830
1321,96.99990844,72.00048830
1322,96.99990844,72.00048830
1323,96.00000000,70.00012207
1324,96.00000000,74.00006104
1325,96.00000000,75.00064089
1326,96.00000000,76.00042726
1327,96.00000000,75.00064089
1328,96.00000000,75.00064089
1329,96.00000000,74.00006104
1330,96.00000000,74.00006104
1331,96.00000000,73.00027467
1332,96.00000000,73.00027467
1333,96.00000000,73.00027467
1334,96.00000000,73.00027467
1335,96.00000000,73.00027467
1336,96.00000000,72.00048830
1337,96.00000000,72.00048830
1338,96.00000000,72.00048830
1339,96.00000000,72.00048830
1340,96.00000000,73.00027467
1341,96.00000000,72.00048830
1342,96.00000000,73.00027467
1343,96.00000000,73.00027467
1344,96.00000000,72.00048830
1345,96.00000000,72.00048830
1346,96.00000000,72.00048830
1347,96.00000000,73.00027467
1348,96.00000000,73.00027467
1349,96.00000000,73.00027467
1350,96.00000000,75.00064089
1351,96.00000000,77.00021363
1352,96.00000000,77.00021363
1353,96.00000000,79.00057985
1354,96.99990844,80.00036622
1355,96.99990844,80.00036622
1356,96.99990844,79.00057985
1357,96.99990844,79.00057985
1358,96.99990844,79.00057985
1359,96.99990844,79.00057985
1360,96.99990844,79.00057985
1361,96.99990844,80.00036622
1362,96.99990844,80.00036622
1363,96.99990844,80.00036622
1364,96.99990844,80.00036622
1365,96.99990844,80.00036622
1366,96.99990844,80.00036622
1367,96.99990844,80.00036622
1368,96.99990844,81.00015259
1369,96.00000000,81.00015259
1370,96.00000000,81.00015259
1371,96.00000000,81.00015259
1372,96.00000000,81.00015259
1373,96.00000000,81.00015259
1374,96.00000000,81.00015259
1375,96.00000000,81.00015259
1376,96.00000000,81.00015259
1377,96.00000000,81.00015259
1378,96.00000000,81.00015259
1379,96.00000000,81.00015259
1380,96.00000000,81.00015259
1381,96.00000000,81.00015259
1382,96.00000000,81.00015259
1383,96.00000000,81.00015259
1384,96.00000000,81.00015259
1385,96.00000000,82.00073244
1386,96.00000000,82.00073244
1387,94.99996948,82.99972533
1388,94.99996948,82.99972533
1389,94.99996948,85.99987793
1390,96.00000000,85.99987793
1391,96.00000000,91.99938963
1392,96.00000000,91.99938963
1393,96.00000000,88.99923704
1394,96.00000000,88.99923704
1395,96.00000000,88.99923704
1396,96.00000000,87.99945067
1397,96.00000000,86.99966430
1398,96.00000000,86.99966430
1399,96.00000000,84.99929807
1400,96.00000000,82.00073244
1401,96.00000000,80.00036622
1402,96.00000000,78.00000000
1403,96.00000000,76.00042726
1404,96.00000000,75.00064089
1405,96.00000000,75.00064089
1406,96.00000000,74.00006104
1407,96.00000000,73.00027467
1408,96.00000000,73.00027467
1409,96.00000000,72.00048830
1410,96.00000000,71.00070193
1411,96.00000000,71.00070193
1412,96.00000000,72.00048830
1413,96.00000000,71.00070193
1414,96.00000000,70.00012207
1415,96.00000000,70.00012207
1416,96.00000000,70.00012207
1417,96.99990844,70.00012207
1418,96.00000000,70.00012207
1419,96.00000000,70.00012207
1420,96.00000000,70.00012207
1421,96.00000000,69.00033570
1422,96.00000000,69.00033570
1423,96.00000000,69.00033570
1424,96.99990844,69.00033570
1425,96.00000000,68.00054933
1426,96.00000000,68.00054933
1427,96.00000000,70.00012207
1428,96.00000000,70.00012207
1429,96.00000000,70.00012207
1430,96.00000000,71.00070193
1431,96.00000000,70.00012207
1432,96.00000000,69.00033570
1433,96.00000000,68.00054933
1434,96.00000000,66.00018311
1435,96.00000000,65.00039674
1436,96.00000000,65.00039674
1437,96.00000000,64.00061037
1438,96.00000000,64.00061037
1439,96.00000000,63.00003052
1440,96.00000000,63.00003052
1441,96.00000000,63.00003052
1442,94.99996948,62.00024415
1443,94.99996948,62.00024415
1444,94.99996948,62.00024415
1445,94.99996948,62.00024415
1446,94.99996948,62.00024415
1447,94.99996948,62.00024415
1448,94.99996948,63.00003052
1449,94.99996948,63.00003052
1450,94.99996948,63.00003052
1451,94.99996948,63.00003052
1452,94.99996948,62.00024415
1453,94.99996948,62.00024415
1454,94.99996948,63.00003052
1455,94.99996948,63.00003052
1456,94.99996948,64.00061037
1457,94.99996948,64.00061037
1458,96.00000000,64.00061037
1459,96.00000000,64.00061037
1460,96.00000000,64.00061037
1461,96.00000000,64.00061037
1462,96.00000000,64.00061037
1463,96.00000000,64.00061037
1464,96.00000000,64.00061037
1465,96.00000000,64.00061037
1466,96.00000000,64.00061037
1467,96.00000000,64.00061037
1468,96.00000000,64.00061037
1469,96.00000000,63.00003052
1470,96.00000000,62.00024415
1471,96.00000000,62.00024415
1472,96.00000000,61.00045778
1473,96.00000000,60.00067141
1474,96.00000000,60.00067141
1475,96.00000000,60.00067141
1476,96.00000000,59.00009156
1477,96.00000000,59.00009156
1478,96.00000000,59.00009156
1479,96.00000000,59.00009156
1480,96.00000000,59.00009156
1481,96.00000000,59.00009156
1482,94.99996948,59.00009156
1483,94.99996948,59.00009156
1484,94.99996948,58.00030519
1485,94.99996948,58.00030519
1486,94.99996948,58.00030519
1487,94.99996948,58.00030519
1488,94.99996948,58.00030519
1489,94.99996948,58.00030519
1490,94.99996948,57.00051881
1491,94.99996948,58.00030519
1492,94.99996948,58.00030519
1493,94.99996948,58.00030519
1494,94.99996948,58.00030519
1495,94.99996948,59.00009156
1496,94.99996948,59.00009156
1497,94.99996948,59.00009156
1498,94.99996948,59.00009156
1499,94.99996948,59.00009156
1500,94.99996948,59.00009156
1501,94.99996948,59.00009156
1502,94.99996948,61.00045778
1503,94.99996948,61.00045778
1504,94.99996948,61.00045778
1505,94.99996948,62.00024415
1506,94.99996948,62.00024415
1507,94.99996948,63.00003052
1508,94.99996948,63.00003052
1509,94.99996948,64.00061037
1510,94.99996948,64.00061037
1511,94.99996948,64.00061037
1512,94.99996948,65.00039674
1513,94.99996948,65.00039674
1514,94.99996948,64.00061037
1515,94.99996948,64.00061037
1516,94.99996948,64.00061037
1517,94.99996948,64.00061037
1518,94.99996948,64.00061037
1519,94.99996948,65.00039674
1520,94.99996948,64.00061037
1521,94.99996948,64.00061037
1522,94.99996948,64.00061037
1523,94.99996948,64.00061037
1524,94.99996948,64.00061037
1525,94.99996948,63.00003052
1526,94.99996948,63.00003052
1527,94.99996948,63.00003052
1528,94.99996948,63.00003052
1529,94.99996948,62.00024415
1530,94.99996948,62.00024415
1531,94.99996948,62.00024415
1532,94.99996948,62.00024415
1533,94.99996948,61.00045778
1534,94.99996948,61.00045778
1535,94.99996948,61.00045778
1536,94.99996948,61.00045778
1537,94.99996948,61.00045778
1538,94.99996948,61.00045778
1539,94.99996948,62.00024415
1540,94.99996948,61.00045778
1541,94.99996948,61.00045778
1542,94.99996948,61.00045778
1543,94.99996948,61.00045778
1544,94.99996948,61.00045778
1545,94.99996948,61.00045778
1546,94.99996948,61.00045778
1547,94.99996948,62.00024415
1548,94.99996948,62.00024415
1549,94.99996948,62.00024415
1550,94.99996948,61.00045778
1551,94.99996948,61.00045778
1552,94.99996948,61.00045778
1553,94.99996948,61.00045778
1554,94.99996948,60.00067141
1555,94.99996948,60.00067141
1556,94.99996948,60.00067141
1557,94.99996948,60.00067141
1558,94.99996948,61.00045778
1559,94.99996948,61.00045778
1560,94.99996948,61.00045778
1561,94.99996948,61.00045778
1562,94.99996948,60.00067141
1563,94.99996948,60.00067141
1564,94.99996948,60.00067141
1565,94.99996948,60.00067141
1566,94.99996948,60.00067141
1567,94.99996948,60.00067141
1568,94.99996948,61.00045778
1569,94.99996948,61.00045778
1570,94.99996948,62.00024415
1571,94.99996948,63.00003052
1572,94.99996948,63.00003052
1573,96.00000000,63.00003052
1574,96.00000000,63.00003052
1575,96.00000000,63.00003052
1576,96.00000000,63.00003052
1577,96.00000000,63.00003052
1578,96.00000000,63.00003052
1579,96.00000000,63.00003052
1580,96.00000000,64.00061037
1581,96.00000000,67.00076296
1582,96.00000000,68.00054933
1583,96.00000000,69.00033570
1584,96.00000000,67.00076296
1585,96.00000000,66.00018311
1586,96.00000000,66.00018311
1587,96.00000000,65.00039674
1588,96.00000000,65.00039674
1589,96.00000000,64.00061037
1590,96.00000000,64.00061037
1591,96.00000000,64.00061037
1592,96.00000000,64.00061037
1593,96.00000000,64.00061037
1594,96.00000000,64.00061037
1595,96.00000000,64.00061037
1596,96.00000000,64.00061037
1597,96.00000000,64.00061037
1598,96.00000000,64.00061037
1599,96.00000000,64.00061037
1600,96.00000000,63.00003052
1601,96.00000000,63.00003052
1602,96.00000000,63.00003052
1603,96.00000000,62.00024415
1604,96.00000000,62.00024415
1605,96.00000000,62.00024415
1606,96.00000000,62.00024415
1607,96.00000000,62.00024415
1608,96.00000000,61.00045778
1609,96.00000000,61.00045778
1610,96.00000000,61.00045778
1611,96.00000000,61.00045778
1612,96.00000000,61.00045778
1613,96.00000000,62.00024415
1614,96.00000000,62.00024415
1615,96.00000000,62.00024415
1616,94.99996948,62.00024415
1617,94.99996948,62.00024415
1618,94.99996948,62.00024415
1619,94.99996948,62.00024415
1620,94.99996948,62.00024415
1621,96.00000000,62.00024415
1622,96.00000000,62.00024415
1623,96.00000000,61.00045778
1624,96.00000000,61.00045778
1625,96.00000000,61.00045778
1626,96.00000000,62.00024415
1627,96.00000000,63.00003052
1628,96.00000000,63.00003052
1629,96.00000000,63.00003052
1630,96.00000000,64.00061037
1631,96.00000000,63.00003052
1632,94.99996948,63.00003052
1633,94.99996948,63.00003052
1634,94.99996948,63.00003052
1635,94.99996948,63.00003052
1636,94.99996948,64.00061037
1637,94.99996948,64.00061037
1638,94.99996948,63.00003052
1639,94.99996948,64.00061037
1640,94.99996948,63.00003052
1641,94.99996948,63.00003052
1642,94.99996948,64.00061037
1643,94.99996948,64.00061037
1644,94.99996948,64.00061037
1645,94.99996948,64.00061037
1646,94.99996948,64.00061037
1647,94.99996948,64.00061037
1648,94.99996948,63.00003052
1649,94.99996948,62.00024415
1650,94.99996948,62.00024415
1651,94.99996948,62.00024415
1652,94.99996948,62.00024415
1653,94.99996948,62.00024415
1654,94.99996948,61.00045778
1655,94.99996948,61.00045778
1656,94.99996948,60.00067141
1657,94.99996948,60.00067141
1658,94.99996948,60.00067141
1659,94.99996948,60.00067141
1660,94.99996948,60.00067141
1661,94.99996948,60.00067141
1662,94.99996948,60.00067141
1663,94.99996948,61.00045778
1664,94.99996948,61.00045778
1665,94.99996948,61.00045778
1666,94.99996948,61.00045778
1667,94.99996948,61.00045778
1668,94.99996948,62.00024415
1669,94.99996948,63.00003052
1670,94.99996948,63.00003052
1671,94.99996948,64.00061037
1672,94.99996948,65.00039674
1673,94.99996948,67.00076296
1674,94.99996948,67.00076296
1675,94.99996948,69.00033570
1676,94.99996948,69.00033570
1677,94.99996948,69.00033570
1678,96.00000000,71.00070193
1679,96.00000000,73.00027467
1680,96.00000000,73.00027467
1681,96.00000000,74.00006104
1682,96.00000000,74.00006104
1683,96.00000000,74.00006104
1684,96.00000000,75.00064089
1685,96.00000000,76.00042726
1686,96.00000000,76.00042726
1687,96.00000000,76.00042726
1688,96.00000000,76.00042726
1689,96.00000000,76.00042726
1690,96.00000000,76.00042726
1691,96.00000000,79.00057985
1692,96.99990844,85.99987793
1693,96.99990844,93.99975585
1694,96.99990844,93.99975585
1695,96.99990844,99.99926756
1696,96.99990844,99.99926756
1697,96.99990844,99.99926756
1698,96.99990844,99.99926756
1699,96.99990844,99.99926756
1700,96.00000000,99.99926756
1701,96.00000000,99.99926756
1702,96.00000000,99.99926756
1703,96.00000000,99.99926756
1704,96.00000000,97.99969481
1705,96.00000000,94.99954222
1706,96.99990844,89.99981689
1707,96.99990844,84.99929807
1708,96.99990844,82.00073244
1709,96.99990844,78.00000000
1710,96.99990844,78.00000000
1711,96.99990844,78.00000000
1712,96.99990844,78.00000000
1713,96.99990844,79.00057985
1714,96.99990844,79.00057985
1715,96.99990844,82.00073244
1716,96.99990844,82.00073244
1717,96.99990844,82.00073244
1718,96.99990844,82.00073244
1719,96.99990844,82.00073244
1720,96.99990844,82.99972533
1721,96.99990844,83.99951170
1722,96.99990844,83.99951170
1723,96.99990844,83.99951170
1724,96.99990844,83.99951170
1725,96.99990844,83.99951170
1726,96.99990844,84.99929807
1727,96.99990844,84.99929807
1728,96.99990844,84.99929807
1729,96.99990844,84.99929807
1730,96.00000000,84.99929807
1731,96.00000000,83.99951170
1732,96.00000000,83.99951170
1733,96.00000000,82.99972533
1734,96.00000000,82.99972533
1735,96.00000000,82.99972533
1736,96.00000000,82.00073244
1737,96.00000000,80.00036622
1738,96.00000000,79.00057985
1739,96.00000000,77.00021363
1740,96.00000000,76.00042726
1741,94.99996948,76.00042726
1742,94.99996948,76.00042726
1743,94.99996948,76.00042726
1744,94.99996948,76.00042726
1745,94.99996948,76.00042726
1746,94.99996948,75.00064089
1747,94.99996948,75.00064089
1748,94.99996948,76.00042726
1749,94.99996948,76.00042726
1750,96.00000000,76.00042726
1751,96.00000000,77.00021363
1752,96.00000000,76.00042726
1753,96.00000000,75.00064089
1754,96.00000000,74.00006104
1755,96.00000000,74.00006104
1756,96.00000000,74.00006104
1757,96.00000000,74.00006104
1758,96.00000000,74.00006104
1759,96.00000000,74.00006104
1760,96.00000000,74.00006104
1761,96.00000000,74.00006104
1762,96.00000000,73.00027467
1763,96.00000000,73.00027467
1764,96.00000000,73.00027467
1765,96.00000000,73.00027467
1766,96.00000000,73.00027467
1767,96.00000000,73.00027467
1768,96.00000000,73.00027467
1769,96.00000000,73.00027467
1770,96.00000000,72.00048830
1771,96.00000000,72.00048830
1772,96.00000000,71.00070193
1773,96.00000000,71.00070193
1774,96.00000000,71.00070193
1775,96.00000000,71.00070193
1776,96.00000000,70.00012207
1777,96.00000000,70.00012207
1778,96.00000000,70.00012207
1779,96.00000000,69.00033570
1780,96.00000000,69.00033570
1781,96.00000000,69.00033570
1782,96.00000000,69.00033570
1783,96.00000000,69.00033570
1784,96.00000000,69.00033570
1785,96.00000000,69.00033570
1786,96.00000000,69.00033570
1787,96.00000000,70.00012207
1788,96.00000000,70.00012207
1789,96.00000000,69.00033570
1790,96.00000000,70.00012207
1791,96.00000000,70.00012207
1792,96.00000000,70.00012207
1793,96.00000000,70.00012207
1794,96.00000000,70.00012207
1795,96.00000000,70.00012207
1796,96.00000000,70.00012207
1797,96.00000000,70.00012207
1798,96.00000000,70.00012207
1799,96.00000000,70.00012207
1800,96.00000000,70.00012207
1801,96.00000000,70.00012207
1802,96.00000000,71.00070193
1803,96.00000000,70.00012207
1804,96.00000000,69.00033570
1805,96.00000000,68.00054933
1806,96.00000000,68.00054933
1807,96.00000000,68.00054933
1808,96.00000000,67.00076296
1809,96.00000000,67.00076296
1810,96.00000000,67.00076296
1811,96.00000000,67.00076296
1812,96.00000000,66.00018311
1813,96.00000000,66.00018311
1814,96.00000000,66.00018311
1815,96.00000000,66.00018311
1816,96.00000000,66.00018311
1817,96.00000000,66.00018311
1818,96.00000000,66.00018311
1819,96.00000000,67.00076296
1820,96.00000000,67.00076296
1821,96.00000000,67.00076296
1822,96.00000000,67.00076296
1823,96.00000000,68.00054933
1824,96.00000000,68.00054933
1825,96.00000000,68.00054933
1826,96.00000000,68.00054933
1827,96.00000000,67.00076296
1828,96.00000000,67.00076296
1829,96.00000000,68.00054933
1830,96.00000000,68.00054933
1831,96.00000000,69.00033570
1832,96.00000000,69.00033570
1833,96.00000000,69.00033570
1834,96.00000000,70.00012207
1835,96.00000000,70.00012207
1836,96.00000000,71.00070193
1837,96.00000000,71.00070193
1838,96.00000000,71.00070193
1839,96.00000000,70.00012207
1840,96.00000000,70.00012207
1841,96.00000000,69.00033570
1842,96.00000000,69.00033570
1843,96.00000000,69.00033570
1844,96.00000000,69.00033570
1845,96.00000000,69.00033570
1846,96.00000000,69.00033570
1847,96.00000000,69.00033570
1848,96.00000000,69.00033570
1849,96.00000000,70.00012207
1850,96.00000000,70.00012207
1851,96.00000000,70.00012207
1852,96.00000000,71.00070193
1853,96.00000000,71.00070193
1854,96.00000000,71.00070193
1855,96.00000000,70.00012207
1856,96.00000000,70.00012207
1857,96.00000000,70.00012207
1858,96.00000000,70.00012207
1859,96.00000000,70.00012207
1860,96.00000000,71.00070193
1861,96.00000000,71.00070193
1862,96.00000000,71.00070193
1863,96.00000000,71.00070193
1864,96.00000000,71.00070193
1865,96.00000000,71.00070193
1866,96.00000000,71.00070193
1867,96.00000000,70.00012207
1868,96.00000000,70.00012207
1869,96.00000000,70.00012207
1870,96.00000000,69.00033570
1871,96.00000000,69.00033570
1872,96.00000000,69.00033570
1873,96.00000000,69.00033570
1874,96.00000000,69.00033570
1875,96.00000000,69.00033570
1876,96.00000000,69.00033570
1877,96.00000000,68.00054933
1878,96.00000000,68.00054933
1879,96.00000000,67.00076296
1880,96.00000000,67.00076296
1881,96.00000000,67.00076296
1882,96.00000000,67.00076296
1883,96.00000000,67.00076296
1884,96.00000000,67.00076296
1885,96.00000000,67.00076296
1886,96.00000000,68.00054933
1887,96.00000000,68.00054933
1888,96.00000000,68.00054933
1889,96.00000000,69.00033570
1890,96.00000000,68.00054933
1891,96.00000000,69.00033570
1892,96.00000000,68.00054933
1893,96.00000000,68.00054933
1894,96.00000000,68.00054933
1895,96.00000000,68.00054933
1896,96.00000000,68.00054933
1897,96.00000000,69.00033570
1898,96.00000000,69.00033570
1899,96.00000000,69.00033570
1900,96.00000000,69.00033570
1901,96.00000000,69.00033570
1902,96.00000000,70.00012207
1903,96.00000000,70.00012207
1904,96.00000000,70.00012207
1905,96.00000000,70.00012207
1906,96.00000000,70.00012207
1907,96.00000000,70.00012207
1908,96.00000000,70.00012207
1909,96.00000000,70.00012207
1910,96.00000000,70.00012207
1911,96.00000000,70.00012207
1912,96.00000000,70.00012207
1913,96.00000000,70.00012207
1914,96.00000000,70.00012207
1915,96.00000000,70.00012207
1916,96.00000000,70.00012207
1917,96.00000000,70.00012207
1918,96.00000000,70.00012207
1919,96.00000000,69.00033570
1920,96.00000000,69.00033570
1921,96.00000000,69.00033570
1922,96.00000000,69.00033570
1923,96.00000000,70.00012207
1924,96.00000000,70.00012207
1925,96.00000000,70.00012207
1926,96.00000000,70.00012207
1927,96.00000000,69.00033570
1928,96.00000000,69.00033570
1929,96.00000000,69.00033570
1930,96.00000000,69.00033570
1931,96.00000000,69.00033570
1932,96.00000000,68.00054933
1933,96.00000000,68.00054933
1934,96.00000000,68.00054933
1935,96.00000000,68.00054933
1936,96.00000000,68.00054933
1937,96.00000000,68.00054933
1938,96.00000000,68.00054933
1939,96.00000000,68.00054933
1940,96.00000000,68.00054933
1941,96.00000000,68.00054933
1942,96.00000000,67.00076296
1943,96.00000000,67.00076296
1944,96.00000000,66.00018311
1945,96.00000000,66.00018311
1946,96.00000000,66.00018311
1947,96.00000000,66.00018311
1948,96.00000000,67.00076296
1949,96.00000000,67.00076296
1950,96.00000000,68.00054933
1951,96.00000000,67.00076296
1952,96.00000000,67.00076296
1953,96.00000000,66.00018311
1954,96.00000000,66.00018311
1955,96.00000000,65.00039674
1956,96.00000000,65.00039674
1957,96.00000000,65.00039674
1958,96.00000000,65.00039674
1959,96.00000000,65.00039674
1960,96.00000000,65.00039674
1961,96.00000000,65.00039674
1962,96.00000000,66.00018311
1963,96.00000000,66.00018311
1964,96.00000000,66.00018311
1965,96.00000000,67.00076296
1966,96.00000000,67.00076296
1967,96.00000000,68.00054933
1968,96.00000000,68.00054933
1969,96.00000000,68.00054933
1970,96.00000000,68.00054933
1971,96.00000000,68.00054933
1972,96.00000000,69.00033570
1973,94.99996948,69.00033570
1974,94.99996948,70.00012207
1975,94.99996948,70.00012207
1976,94.99996948,72.00048830
1977,94.99996948,72.00048830
1978,94.99996948,75.00064089
1979,94.99996948,75.00064089
1980,96.00000000,75.00064089
1981,96.00000000,75.00064089
1982,96.00000000,73.00027467
1983,96.00000000,73.00027467
1984,96.00000000,73.00027467
1985,96.00000000,73.00027467
1986,96.00000000,74.00006104
1987,96.00000000,73.00027467
1988,96.00000000,73.00027467
1989,96.00000000,73.00027467
1990,96.00000000,73.00027467
1991,96.00000000,73.00027467
1992,96.00000000,74.00006104
1993,96.00000000,77.00021363
1994,96.00000000,77.00021363
1995,96.00000000,81.00015259
1996,96.00000000,82.00073244
1997,96.00000000,82.00073244
1998,96.00000000,82.99972533
1999,96.00000000,82.99972533
2000,96.00000000,83.99951170
2001,96.00000000,83.99951170
2002,96.00000000,84.99929807
2003,96.00000000,85.99987793
2004,96.99990844,83.99951170
2005,96.99990844,82.99972533
2006,96.99990844,81.00015259
2007,96.99990844,79.00057985
2008,97.99993896,79.00057985
2009,97.99993896,82.99972533
2010,97.99993896,82.99972533
2011,97.99993896,83.99951170
2012,97.99993896,83.99951170
2013,96.99990844,82.99972533
2014,96.99990844,82.00073244
2015,96.99990844,79.00057985
2016,96.99990844,78.00000000
2017,97.99993896,79.00057985
2018,97.99993896,78.00000000
2019,97.99993896,79.00057985
2020,97.99993896,78.00000000
2021,96.99990844,78.00000000
2022,96.99990844,78.00000000
2023,96.99990844,78.00000000
2024,96.99990844,78.00000000
2025,96.00000000,78.00000000
2026,96.00000000,77.00021363
2027,96.00000000,77.00021363
2028,96.00000000,77.00021363
2029,96.00000000,77.00021363
2030,96.00000000,77.00021363
2031,96.99990844,77.00021363
2032,96.99990844,77.00021363
2033,96.99990844,77.00021363
2034,96.99990844,77.00021363
2035,96.99990844,77.00021363
2036,96.99990844,77.00021363
2037,96.99990844,77.00021363
2038,96.99990844,77.00021363
2039,96.99990844,77.00021363
2040,96.99990844,77.00021363
2041,96.99990844,77.00021363
2042,96.99990844,77.00021363
2043,96.99990844,77.00021363
2044,96.99990844,77.00021363
2045,96.99990844,77.00021363
2046,96.99990844,80.00036622
2047,96.99990844,86.99966430
2048,96.99990844,86.99966430
2049,96.99990844,94.99954222
2050,96.99990844,95.99932859
2051,96.99990844,92.99996948
2052,96.99990844,89.99981689
2053,96.99990844,85.99987793
2054,96.99990844,82.00073244
2055,96.00000000,80.00036622
2056,96.00000000,77.00021363
2057,96.00000000,76.00042726
2058,96.00000000,75.00064089
2059,96.00000000,75.00064089
2060,96.00000000,75.00064089
2061,96.00000000,74.00006104
2062,96.00000000,73.00027467
2063,96.00000000,73.00027467
2064,96.00000000,73.00027467
2065,96.00000000,73.00027467
2066,96.00000000,73.00027467
2067,96.00000000,73.00027467
2068,96.00000000,73.00027467
2069,96.00000000,73.00027467
2070,96.00000000,71.00070193
2071,96.00000000,71.00070193
2072,96.00000000,70.00012207
2073,96.00000000,69.00033570
2074,96.00000000,69.00033570
2075,96.00000000,70.00012207
2076,96.00000000,69.00033570
2077,96.00000000,68.00054933
2078,96.00000000,67.00076296
2079,96.00000000,67.00076296
2080,96.00000000,66.00018311
2081,96.00000000,65.00039674
2082,96.00000000,64.00061037
2083,96.00000000,64.00061037
2084,96.00000000,63.00003052
2085,96.00000000,63.00003052
2086,96.00000000,63.00003052
2087,96.00000000,63.00003052
2088,96.00000000,63.00003052
2089,96.00000000,63.00003052
2090,94.99996948,64.00061037
2091,94.99996948,63.00003052
2092,94.99996948,63.00003052
2093,94.99996948,63.00003052
2094,96.00000000,62.00024415
2095,96.00000000,62.00024415
2096,96.00000000,62.00024415
2097,96.00000000,62.00024415
2098,96.00000000,62.00024415
2099,94.99996948,63.00003052
2100,94.99996948,63.00003052
2101,94.99996948,63.00003052
2102,94.99996948,63.00003052
2103,94.99996948,63.00003052
2104,94.99996948,62.00024415
2105,94.99996948,62.00024415
2106,94.99996948,62.00024415
2107,94.99996948,61.00045778
2108,94.99996948,61.00045778
2109,94.99996948,62.00024415
2110,94.99996948,62.00024415
2111,94.99996948,62.00024415
2112,94.99996948,62.00024415
2113,94.99996948,62.00024415
2114,94.99996948,63.00003052
2115,94.99996948,63.00003052
2116,94.99996948,63.00003052
2117,94.99996948,63.00003052
2118,94.99996948,62.00024415
2119,94.99996948,62.00024415
2120,94.99996948,61.00045778
2121,94.99996948,61.00045778
2122,94.99996948,61.00045778
2123,96.00000000,61.00045778
2124,96.00000000,61.00045778
2125,96.00000000,60.00067141
2126,96.00000000,60.00067141
2127,96.00000000,60.00067141
2128,96.00000000,60.00067141
2129,96.00000000,60.00067141
2130,96.00000000,60.00067141
2131,96.00000000,61.00045778
2132,96.00000000,61.00045778
2133,96.00000000,61.00045778
2134,96.00000000,61.00045778
2135,96.00000000,61.00045778
2136,96.00000000,61.00045778
2137,96.00000000,62.00024415
2138,96.00000000,62.00024415
2139,96.00000000,62.00024415
2140,96.00000000,61.00045778
2141,94.99996948,61.00045778
2142,94.99996948,61.00045778
2143,94.99996948,61.00045778
2144,94.99996948,61.00045778
2145,94.99996948,61.00045778
2146,94.99996948,61.00045778
2147,94.99996948,61.00045778
2148,94.99996948,62.00024415
2149,94.99996948,62.00024415
2150,94.99996948,62.00024415
2151,94.99996948,62.00024415
2152,94.99996948,62.00024415
2153,94.99996948,62.00024415
2154,94.99996948,62.00024415
2155,94.99996948,62.00024415
2156,94.99996948,62.00024415
2157,94.99996948,63.00003052
2158,94.99996948,63.00003052
2159,94.99996948,64.00061037
2160,94.99996948,65.00039674
2161,96.00000000,65.00039674
2162,96.00000000,66.00018311
2163,96.00000000,67.00076296
2164,96.00000000,67.00076296
2165,96.00000000,68.00054933
2166,96.00000000,68.00054933
2167,96.00000000,67.00076296
2168,96.00000000,67.00076296
2169,94.99996948,68.00054933
2170,94.99996948,68.00054933
2171,94.99996948,67.00076296
2172,94.99996948,67.00076296
2173,94.99996948,67.00076296
2174,94.99996948,68.00054933
2175,94.99996948,67.00076296
2176,94.99996948,67.00076296
2177,94.99996948,67.00076296
2178,94.99996948,67.00076296
2179,94.99996948,66.00018311
2180,94.99996948,66.00018311
2181,94.99996948,65.00039674
2182,94.99996948,65.00039674
2183,94.99996948,65.00039674
2184,94.99996948,66.00018311
2185,94.99996948,66.00018311
2186,94.99996948,66.00018311
2187,94.99996948,66.00018311
2188,94.99996948,65.00039674
2189,94.99996948,65.00039674
2190,94.99996948,63.00003052
2191,94.99996948,63.00003052
2192,94.99996948,63.00003052
2193,94.99996948,63.00003052
2194,94.99996948,63.00003052
2195,94.99996948,63.00003052
2196,94.99996948,62.00024415
2197,94.99996948,62.00024415
2198,94.99996948,62.00024415
2199,94.99996948,62.00024415
2200,94.99996948,61.00045778
2201,94.99996948,61.00045778
2202,94.99996948,61.00045778
2203,94.99996948,61.00045778
2204,94.99996948,62.00024415
2205,94.99996948,62.00024415
2206,94.99996948,62.00024415
2207,94.99996948,62.00024415
2208,94.99996948,63.00003052
2209,94.99996948,63.00003052
2210,94.99996948,64.00061037
2211,94.99996948,64.00061037
2212,94.99996948,64.00061037
2213,94.99996948,63.00003052
2214,94.99996948,63.00003052
2215,94.99996948,63.00003052
2216,94.99996948,63.00003052
2217,94.99996948,63.00003052
2218,94.99996948,63.00003052
2219,94.99996948,62.00024415
2220,94.99996948,62.00024415
2221,94.99996948,62.00024415
2222,94.99996948,62.00024415
2223,94.99996948,62.00024415
2224,94.99996948,62.00024415
2225,94.99996948,62.00024415
2226,94.99996948,63.00003052
2227,94.99996948,63.00003052
2228,94.99996948,64.00061037
2229,94.99996948,64.00061037
2230,94.99996948,64.00061037
2231,94.99996948,64.00061037
2232,94.99996948,64.00061037
2233,94.99996948,64.00061037
2234,94.99996948,64.00061037
2235,94.99996948,63.00003052
2236,94.99996948,63.00003052
2237,94.99996948,63.00003052
2238,94.99996948,63.00003052
2239,94.99996948,63.00003052
2240,94.99996948,63.00003052
2241,94.99996948,63.00003052
2242,94.99996948,63.00003052
2243,94.99996948,63.00003052
2244,94.99996948,64.00061037
2245,94.99996948,64.00061037
2246,94.99996948,64.00061037
2247,96.00000000,65.00039674
2248,94.99996948,64.00061037
2249,94.99996948,63.00003052
2250,94.99996948,62.00024415
2251,94.99996948,62.00024415
2252,94.99996948,62.00024415
2253,94.99996948,62.00024415
2254,94.99996948,62.00024415
2255,94.99996948,62.00024415
2256,94.99996948,62.00024415
2257,94.99996948,62.00024415
2258,94.99996948,62.00024415
2259,94.99996948,62.00024415
2260,94.99996948,62.00024415
2261,94.99996948,62.00024415
2262,94.99996948,62.00024415
2263,94.99996948,62.00024415
2264,96.00000000,62.00024415
2265,96.00000000,62.00024415
2266,96.00000000,63.00003052
2267,96.00000000,63.00003052
2268,96.00000000,63.00003052
2269,96.00000000,64.00061037
2270,96.00000000,63.00003052
2271,96.00000000,63.00003052
2272,96.99990844,63.00003052
2273,96.00000000,64.00061037
2274,96.00000000,64.00061037
2275,96.00000000,65.00039674
2276,94.99996948,65.00039674
2277,94.99996948,65.00039674
2278,94.99996948,64.00061037
2279,94.99996948,63.00003052
2280,94.99996948,62.00024415
2281,94.99996948,62.00024415
2282,94.99996948,62.00024415
2283,94.99996948,63.00003052
2284,94.99996948,63.00003052
2285,94.99996948,64.00061037
2286,96.00000000,66.00018311
2287,96.00000000,66.00018311
