'sample interval','SpO2','hr'
'1 sec','%','bpm'
0,96.99995422,95.99990844
1,95.99993896,95.99990844
2,95.99993896,96.99992370
3,95.99993896,95.99990844
4,95.99993896,95.99990844
5,95.99993896,95.99990844
6,95.99993896,95.99990844
7,95.99993896,95.99990844
8,95.99993896,94.99989318
9,95.99993896,90.99983215
10,95.99993896,89.99981689
11,95.99993896,88.99980163
12,95.99993896,88.99980163
13,96.99995422,87.00054933
14,96.99995422,82.00047304
15,96.99995422,82.00047304
16,96.99995422,79.00042726
17,95.99993896,80.00044252
18,95.99993896,80.00044252
19,95.99993896,80.00044252
20,95.99993896,80.00044252
21,95.99993896,78.00041200
22,95.99993896,78.00041200
23,95.99993896,77.00039674
24,95.99993896,75.00036622
25,95.00000000,75.00036622
26,95.00000000,76.00038148
27,95.00000000,78.00041200
28,95.00000000,77.00039674
29,95.00000000,77.00039674
30,95.00000000,77.00039674
31,95.00000000,76.00038148
32,95.00000000,76.00038148
33,95.00000000,76.00038148
34,95.00000000,76.00038148
35,95.00000000,76.00038148
36,95.00000000,76.00038148
37,95.00000000,76.00038148
38,95.00000000,76.00038148
39,95.00000000,75.00036622
40,95.00000000,75.00036622
41,95.00000000,74.00035096
42,95.00000000,73.00033570
43,95.00000000,74.00035096
44,95.00000000,74.00035096
45,95.00000000,76.00038148
46,95.00000000,76.00038148
47,95.00000000,76.00038148
48,95.00000000,74.00035096
49,95.00000000,71.00030518
50,95.00000000,68.00025941
51,95.00000000,66.00022889
52,95.00000000,66.00022889
53,95.00000000,65.00021363
54,95.00000000,66.00022889
55,95.00000000,66.00022889
56,95.99993896,67.00024415
57,95.99993896,68.00025941
58,95.99993896,67.00024415
59,95.99993896,68.00025941
60,95.99993896,67.00024415
61,95.99993896,67.00024415
62,95.00000000,67.00024415
63,95.00000000,67.00024415
64,95.00000000,69.00027467
65,95.99993896,70.00028993
66,95.99993896,72.00032044
67,95.99993896,71.00030518
68,95.99993896,71.00030518
69,95.00000000,71.00030518
70,95.00000000,71.00030518
71,95.00000000,71.00030518
72,95.00000000,72.00032044
73,95.99993896,75.00036622
74,95.99993896,75.00036622
75,95.99993896,75.00036622
76,95.99993896,74.00035096
77,95.99993896,71.00030518
78,95.99993896,71.00030518
79,95.99993896,72.00032044
80,95.99993896,74.00035096
81,95.99993896,74.00035096
82,95.99993896,75.00036622
83,95.99993896,78.00041200
84,95.99993896,79.00042726
85,95.99993896,79.00042726
86,95.99993896,79.00042726
87,95.99993896,79.00042726
88,95.99993896,78.00041200
89,95.99993896,77.00039674
90,95.99993896,76.00038148
91,95.99993896,76.00038148
92,95.00000000,75.00036622
93,95.00000000,75.00036622
94,95.00000000,75.00036622
95,95.00000000,75.00036622
96,95.00000000,74.00035096
97,95.00000000,73.00033570
98,95.00000000,72.00032044
99,95.00000000,72.00032044
100,95.00000000,72.00032044
101,95.00000000,73.00033570
102,95.00000000,73.00033570
103,95.00000000,73.00033570
104,95.00000000,73.00033570
105,95.00000000,73.00033570
106,95.00000000,73.00033570
107,95.00000000,74.00035096
108,95.00000000,75.00036622
109,95.00000000,76.00038148
110,95.00000000,75.00036622
111,95.00000000,76.00038148
112,95.00000000,75.00036622
113,95.00000000,75.00036622
114,95.00000000,74.00035096
115,95.00000000,73.00033570
116,95.00000000,73.00033570
117,95.00000000,74.00035096
118,95.00000000,75.00036622
119,95.00000000,75.00036622
120,95.00000000,77.00039674
121,95.00000000,77.00039674
122,95.00000000,77.00039674
123,95.00000000,78.00041200
124,95.00000000,78.00041200
125,95.00000000,78.00041200
126,95.00000000,78.00041200
127,95.00000000,78.00041200
128,95.00000000,78.00041200
129,95.00000000,78.00041200
130,95.00000000,79.00042726
131,95.00000000,79.00042726
132,95.00000000,80.00044252
133,95.00000000,80.00044252
134,95.00000000,81.00045778
135,95.00000000,81.00045778
136,95.00000000,83.00048830
137,95.00000000,83.00048830
138,95.00000000,84.00050356
139,95.00000000,82.00047304
140,95.00000000,81.00045778
141,95.00000000,80.00044252
142,95.00000000,80.00044252
143,95.00000000,79.00042726
144,95.00000000,79.00042726
145,95.00000000,80.00044252
146,95.00000000,80.00044252
147,95.00000000,81.00045778
148,95.00000000,80.00044252
149,95.00000000,79.00042726
150,95.00000000,76.00038148
151,95.00000000,74.00035096
152,95.00000000,74.00035096
153,95.00000000,74.00035096
154,95.00000000,74.00035096
155,95.00000000,75.00036622
156,95.00000000,76.00038148
157,95.00000000,76.00038148
158,95.00000000,78.00041200
159,95.00000000,78.00041200
160,95.00000000,80.00044252
161,95.00000000,80.00044252
162,95.00000000,80.00044252
163,95.00000000,80.00044252
164,95.00000000,79.00042726
165,95.00000000,79.00042726
166,95.00000000,79.00042726
167,95.00000000,79.00042726
168,95.00000000,79.00042726
169,95.00000000,80.00044252
170,95.00000000,80.00044252
171,95.00000000,81.00045778
172,95.00000000,77.00039674
173,95.00000000,75.00036622
174,95.00000000,73.00033570
175,95.00000000,72.00032044
176,95.00000000,72.00032044
177,95.00000000,72.00032044
178,95.00000000,73.00033570
179,95.00000000,74.00035096
180,95.00000000,75.00036622
181,95.00000000,76.00038148
182,95.00000000,76.00038148
183,95.00000000,76.00038148
184,95.00000000,74.00035096
185,95.00000000,74.00035096
186,95.00000000,74.00035096
187,95.00000000,74.00035096
188,95.00000000,73.00033570
189,95.00000000,73.00033570
190,95.00000000,74.00035096
191,95.00000000,75.00036622
192,95.00000000,78.00041200
193,95.00000000,78.00041200
194,95.00000000,79.00042726
195,95.00000000,80.00044252
196,95.00000000,79.00042726
197,95.00000000,78.00041200
198,95.00000000,79.00042726
199,95.00000000,78.00041200
200,95.00000000,78.00041200
201,95.00000000,79.00042726
202,95.00000000,80.00044252
203,95.00000000,80.00044252
204,95.00000000,81.00045778
205,95.00000000,82.00047304
206,95.00000000,82.00047304
207,95.00000000,82.00047304
208,95.00000000,82.00047304
209,95.00000000,82.00047304
210,95.00000000,82.00047304
211,95.00000000,82.00047304
212,95.00000000,81.00045778
213,95.00000000,81.00045778
214,95.00000000,81.00045778
215,95.00000000,80.00044252
216,95.00000000,80.00044252
217,95.00000000,80.00044252
218,95.00000000,80.00044252
219,95.00000000,81.00045778
220,95.00000000,81.00045778
221,95.00000000,81.00045778
222,95.00000000,80.00044252
223,95.00000000,80.00044252
224,95.00000000,80.00044252
225,95.00000000,79.00042726
226,95.00000000,79.00042726
227,95.00000000,80.00044252
228,95.00000000,80.00044252
229,95.00000000,79.00042726
230,95.00000000,79.00042726
231,95.00000000,80.00044252
232,95.00000000,79.00042726
233,95.00000000,80.00044252
234,95.00000000,80.00044252
235,95.00000000,81.00045778
236,95.00000000,80.00044252
237,95.00000000,80.00044252
238,95.00000000,79.00042726
239,95.00000000,79.00042726
240,95.00000000,79.00042726
241,95.00000000,78.00041200
242,95.00000000,78.00041200
243,95.00000000,79.00042726
244,95.00000000,79.00042726
245,95.00000000,80.00044252
246,95.00000000,80.00044252
247,95.00000000,78.00041200
248,95.00000000,78.00041200
249,95.00000000,77.00039674
250,95.00000000,78.00041200
251,95.00000000,77.00039674
252,95.00000000,78.00041200
253,95.00000000,79.00042726
254,95.00000000,79.00042726
255,95.00000000,80.00044252
256,95.00000000,79.00042726
257,95.00000000,79.00042726
258,95.00000000,79.00042726
259,95.00000000,79.00042726
260,95.00000000,79.00042726
261,95.00000000,79.00042726
262,95.00000000,79.00042726
263,95.00000000,79.00042726
264,95.00000000,79.00042726
265,95.00000000,79.00042726
266,95.00000000,79.00042726
267,95.00000000,78.00041200
268,95.00000000,77.00039674
269,95.00000000,76.00038148
270,95.00000000,76.00038148
271,95.00000000,76.00038148
272,95.00000000,76.00038148
273,95.00000000,76.00038148
274,95.00000000,76.00038148
275,95.00000000,76.00038148
276,95.00000000,75.00036622
277,95.00000000,75.00036622
278,95.00000000,75.00036622
279,95.00000000,75.00036622
280,95.00000000,75.00036622
281,95.00000000,76.00038148
282,95.00000000,77.00039674
283,95.00000000,77.00039674
284,95.00000000,76.00038148
285,95.00000000,76.00038148
286,95.00000000,75.00036622
287,95.00000000,74.00035096
288,95.00000000,74.00035096
289,95.00000000,74.00035096
290,95.00000000,75.00036622
291,95.00000000,75.00036622
292,95.00000000,77.00039674
293,95.00000000,78.00041200
294,95.00000000,78.00041200
295,95.00000000,78.00041200
296,95.00000000,79.00042726
297,95.00000000,79.00042726
298,95.00000000,79.00042726
299,95.00000000,78.00041200
300,95.00000000,79.00042726
301,95.99993896,100.99998474
302,95.99993896,100.99998474
303,95.99993896,99.99996948
304,95.00000000,96.99992370
305,95.99993896,96.99992370
306,95.99993896,94.99989318
307,95.99993896,91.99984741
308,95.99993896,90.99983215
309,95.99993896,90.99983215
310,95.99993896,92.99986267
311,95.99993896,92.99986267
312,95.99993896,92.99986267
313,95.99993896,92.99986267
314,95.99993896,92.99986267
315,95.99993896,93.99987793
316,96.99995422,94.99989318
317,96.99995422,96.99992370
318,97.99996948,96.99992370
319,97.99996948,96.99992370
320,97.99996948,96.99992370
321,97.99996948,96.99992370
322,97.99996948,96.99992370
323,96.99995422,96.99992370
324,96.99995422,96.99992370
325,95.99993896,96.99992370
326,95.00000000,96.99992370
327,95.00000000,96.99992370
328,95.00000000,97.99993896
329,95.00000000,97.99993896
330,95.00000000,97.99993896
331,95.00000000,97.99993896
332,95.00000000,97.99993896
333,95.00000000,95.99990844
334,94.00006104,94.99989318
335,94.00006104,94.99989318
336,94.00006104,94.99989318
337,94.00006104,94.99989318
338,94.00006104,94.99989318
339,94.00006104,94.99989318
340,94.00006104,94.99989318
341,94.00006104,94.99989318
342,94.00006104,94.99989318
343,94.00006104,94.99989318
344,94.00006104,93.99987793
345,94.00006104,93.99987793
346,94.00006104,93.99987793
347,94.00006104,93.99987793
348,94.00006104,93.99987793
349,94.00006104,93.99987793
350,94.00006104,92.99986267
351,94.00006104,88.99980163
352,94.00006104,87.99978637
353,95.00000000,87.00054933
354,94.00006104,87.00054933
355,94.00006104,87.00054933
356,94.00006104,86.00053407
357,94.00006104,86.00053407
358,94.00006104,86.00053407
359,94.00006104,86.00053407
360,95.00000000,86.00053407
361,95.00000000,87.00054933
362,94.00006104,88.99980163
363,94.00006104,88.99980163
364,94.00006104,88.99980163
365,94.00006104,88.99980163
366,94.00006104,88.99980163
367,94.00006104,88.99980163
368,94.00006104,88.99980163
369,94.00006104,88.99980163
370,94.00006104,88.99980163
371,94.00006104,88.99980163
372,94.00006104,88.99980163
373,94.00006104,87.99978637
374,95.00000000,87.00054933
375,95.00000000,87.00054933
376,95.00000000,87.00054933
377,95.00000000,83.00048830
378,95.00000000,82.00047304
379,96.99995422,85.00051881
380,95.99993896,93.99987793
381,95.99993896,95.99990844
382,95.99993896,95.99990844
383,95.99993896,95.99990844
384,95.99993896,96.99992370
385,95.99993896,96.99992370
386,95.99993896,96.99992370
387,95.99993896,97.99993896
388,95.99993896,97.99993896
389,95.99993896,97.99993896
390,95.99993896,97.99993896
391,95.99993896,97.99993896
392,95.00000000,97.99993896
393,95.00000000,97.99993896
394,95.00000000,97.99993896
395,95.00000000,97.99993896
396,95.00000000,97.99993896
397,95.00000000,97.99993896
398,95.00000000,97.99993896
399,95.00000000,97.99993896
400,95.00000000,96.99992370
401,95.00000000,96.99992370
402,95.00000000,96.99992370
403,95.00000000,96.99992370
404,95.00000000,96.99992370
405,95.00000000,96.99992370
406,95.00000000,96.99992370
407,95.00000000,96.99992370
408,95.00000000,96.99992370
409,95.00000000,96.99992370
410,95.00000000,96.99992370
411,95.00000000,96.99992370
412,95.00000000,96.99992370
413,95.00000000,96.99992370
414,95.00000000,96.99992370
415,95.00000000,96.99992370
416,95.99993896,97.99993896
417,95.99993896,98.99995422
418,95.99993896,99.99996948
419,95.99993896,100.99998474
420,95.99993896,100.99998474
421,95.99993896,100.99998474
422,95.99993896,100.99998474
423,95.99993896,100.99998474
424,95.99993896,99.99996948
425,95.99993896,99.99996948
426,95.99993896,99.99996948
427,95.99993896,99.99996948
428,95.99993896,98.99995422
429,95.99993896,98.99995422
430,95.99993896,98.99995422
431,95.00000000,98.99995422
432,94.00006104,98.99995422
433,94.00006104,98.99995422
434,94.00006104,98.99995422
435,95.00000000,98.99995422
436,95.00000000,98.99995422
437,95.00000000,98.99995422
438,95.00000000,98.99995422
439,95.00000000,98.99995422
440,95.00000000,98.99995422
441,95.00000000,98.99995422
442,95.00000000,98.99995422
443,95.00000000,98.99995422
444,95.00000000,98.99995422
445,95.00000000,98.99995422
446,95.00000000,98.99995422
447,95.00000000,99.99996948
448,95.00000000,99.99996948
449,95.00000000,99.99996948
450,95.00000000,99.99996948
451,95.00000000,99.99996948
452,95.00000000,99.99996948
453,95.00000000,99.99996948
454,95.00000000,98.99995422
455,95.00000000,98.99995422
456,95.00000000,98.99995422
457,95.99993896,98.99995422
458,95.99993896,98.99995422
459,95.99993896,98.99995422
460,95.99993896,98.99995422
461,95.99993896,98.99995422
462,95.99993896,98.99995422
463,95.99993896,98.99995422
464,95.99993896,98.99995422
465,95.99993896,98.99995422
466,95.99993896,98.99995422
467,95.99993896,98.99995422
468,95.99993896,98.99995422
469,95.99993896,98.99995422
470,95.99993896,98.99995422
471,95.99993896,98.99995422
472,95.99993896,98.99995422
473,95.99993896,98.99995422
474,95.99993896,98.99995422
475,95.99993896,98.99995422
476,95.00000000,97.99993896
477,95.99993896,95.99990844
478,95.00000000,93.99987793
479,95.00000000,93.99987793
480,95.00000000,93.99987793
481,95.00000000,94.99989318
482,95.00000000,95.99990844
483,95.00000000,96.99992370
484,95.00000000,95.99990844
485,95.00000000,94.99989318
486,95.00000000,94.99989318
487,95.00000000,93.99987793
488,95.00000000,93.99987793
489,95.00000000,93.99987793
490,95.00000000,93.99987793
491,95.00000000,93.99987793
492,95.00000000,93.99987793
493,95.00000000,93.99987793
494,95.00000000,92.99986267
495,95.00000000,92.99986267
496,95.00000000,92.99986267
497,95.00000000,92.99986267
498,95.00000000,92.99986267
499,95.00000000,92.99986267
500,95.00000000,92.99986267
501,95.00000000,92.99986267
502,95.00000000,94.99989318
503,95.00000000,94.99989318
504,95.00000000,94.99989318
505,95.00000000,94.99989318
506,95.00000000,94.99989318
507,95.00000000,94.99989318
508,95.00000000,95.99990844
509,95.00000000,96.99992370
510,95.00000000,96.99992370
511,95.00000000,96.99992370
512,95.00000000,97.99993896
513,95.00000000,97.99993896
514,95.00000000,98.99995422
515,95.00000000,98.99995422
516,95.00000000,98.99995422
517,95.00000000,98.99995422
518,95.00000000,98.99995422
519,95.00000000,98.99995422
520,95.00000000,98.99995422
521,95.00000000,98.99995422
522,95.00000000,98.99995422
523,95.00000000,99.99996948
524,95.00000000,99.99996948
525,95.00000000,99.99996948
526,95.00000000,99.99996948
527,95.00000000,99.99996948
528,95.00000000,99.99996948
529,95.00000000,99.99996948
530,95.00000000,99.99996948
531,95.00000000,100.99998474
532,95.00000000,100.99998474
533,95.00000000,102.00000000
534,95.00000000,102.00000000
535,95.00000000,102.00000000
536,95.00000000,102.99923704
537,95.00000000,103.99925230
538,95.00000000,104.99926756
539,95.00000000,104.99926756
540,95.00000000,104.99926756
541,95.00000000,104.99926756
542,95.00000000,104.99926756
543,95.00000000,104.99926756
544,95.00000000,104.99926756
545,95.00000000,104.99926756
546,94.00006104,104.99926756
547,94.00006104,104.99926756
548,94.00006104,104.99926756
549,94.00006104,105.99928281
550,94.00006104,104.99926756
551,94.00006104,104.99926756
552,94.00006104,103.99925230
553,94.00006104,103.99925230
554,94.00006104,103.99925230
555,94.00006104,103.99925230
556,94.00006104,103.99925230
557,94.00006104,103.99925230
558,94.00006104,103.99925230
559,94.00006104,103.99925230
560,94.00006104,102.00000000
561,94.00006104,103.99925230
562,94.00006104,103.99925230
563,94.00006104,103.99925230
564,94.00006104,103.99925230
565,94.00006104,103.99925230
566,94.00006104,105.99928281
567,94.00006104,105.99928281
568,94.00006104,106.99929807
569,94.00006104,107.99931333
570,94.00006104,107.99931333
571,94.00006104,107.99931333
572,95.00000000,109.99934385
573,95.00000000,109.99934385
574,95.00000000,109.99934385
575,95.00000000,109.99934385
576,95.00000000,109.99934385
577,95.00000000,109.99934385
578,94.00006104,109.99934385
579,94.00006104,109.99934385
580,94.00006104,109.99934385
581,94.00006104,109.99934385
582,94.00006104,109.99934385
583,94.00006104,109.99934385
584,94.00006104,109.99934385
585,94.00006104,110.99935911
586,94.00006104,110.99935911
587,94.00006104,110.99935911
588,94.00006104,110.99935911
589,94.00006104,110.99935911
590,94.00006104,110.99935911
591,94.00006104,109.99934385
592,94.00006104,109.99934385
593,94.00006104,109.99934385
594,94.00006104,109.99934385
595,94.00006104,109.99934385
596,94.00006104,109.99934385
597,94.00006104,109.99934385
598,94.00006104,109.99934385
599,94.00006104,109.99934385
600,94.00006104,109.99934385
601,94.00006104,109.99934385
602,94.00006104,109.99934385
603,94.00006104,109.99934385
604,93.00004578,109.99934385
605,93.00004578,109.99934385
606,93.00004578,109.99934385
607,93.00004578,109.99934385
608,93.00004578,109.99934385
609,93.00004578,109.99934385
610,93.00004578,109.99934385
611,93.00004578,108.99932859
612,93.00004578,108.99932859
613,93.00004578,108.99932859
614,93.00004578,108.99932859
615,93.00004578,109.99934385
616,93.00004578,109.99934385
617,93.00004578,110.99935911
618,93.00004578,110.99935911
619,93.00004578,110.99935911
620,94.00006104,111.99937437
621,94.00006104,111.99937437
622,94.00006104,111.99937437
623,94.00006104,111.99937437
624,94.00006104,111.99937437
625,94.00006104,111.99937437
626,94.00006104,111.99937437
627,94.00006104,112.99938963
628,95.99993896,102.99923704
629,95.99993896,102.00000000
630,95.99993896,99.99996948
631,95.99993896,98.99995422
632,95.00000000,97.99993896
633,95.00000000,95.99990844
634,95.00000000,91.99984741
635,95.00000000,88.99980163
636,95.00000000,87.99978637
637,95.00000000,87.99978637
638,95.00000000,86.00053407
639,95.00000000,85.00051881
640,95.00000000,84.00050356
641,95.00000000,81.00045778
642,95.00000000,82.00047304
643,95.00000000,81.00045778
644,95.00000000,80.00044252
645,95.00000000,81.00045778
646,95.00000000,79.00042726
647,95.00000000,79.00042726
648,95.00000000,80.00044252
649,95.00000000,79.00042726
650,95.00000000,81.00045778
651,95.00000000,82.00047304
652,95.00000000,81.00045778
653,95.00000000,81.00045778
654,95.00000000,81.00045778
655,95.00000000,79.00042726
656,95.00000000,78.00041200
657,95.00000000,79.00042726
658,95.00000000,77.00039674
659,95.00000000,78.00041200
660,95.00000000,77.00039674
661,95.00000000,76.00038148
662,95.00000000,74.00035096
663,95.00000000,74.00035096
664,95.00000000,74.00035096
665,95.00000000,74.00035096
666,95.00000000,73.00033570
667,95.00000000,74.00035096
668,95.00000000,73.00033570
669,95.00000000,74.00035096
670,95.00000000,73.00033570
671,95.00000000,73.00033570
672,95.00000000,74.00035096
673,95.00000000,73.00033570
674,95.00000000,72.00032044
675,95.00000000,72.00032044
676,95.00000000,74.00035096
677,95.00000000,73.00033570
678,95.00000000,75.00036622
679,95.00000000,72.00032044
680,95.00000000,70.00028993
681,95.00000000,70.00028993
682,95.00000000,70.00028993
683,95.00000000,69.00027467
684,95.00000000,69.00027467
685,95.00000000,70.00028993
686,95.00000000,72.00032044
687,95.00000000,73.00033570
688,95.00000000,74.00035096
689,95.00000000,74.00035096
690,95.00000000,76.00038148
691,95.00000000,74.00035096
692,95.00000000,75.00036622
693,95.00000000,73.00033570
694,95.00000000,74.00035096
695,95.00000000,72.00032044
696,95.00000000,74.00035096
697,95.00000000,76.00038148
698,95.00000000,76.00038148
699,95.00000000,76.00038148
700,95.00000000,76.00038148
701,95.00000000,77.00039674
702,95.00000000,76.00038148
703,95.00000000,76.00038148
704,95.00000000,77.00039674
705,95.00000000,78.00041200
706,95.00000000,77.00039674
707,95.00000000,78.00041200
708,95.00000000,78.00041200
709,95.00000000,77.00039674
710,95.00000000,76.00038148
711,95.00000000,76.00038148
712,95.00000000,76.00038148
713,95.00000000,77.00039674
714,95.00000000,79.00042726
715,95.00000000,80.00044252
716,95.00000000,80.00044252
717,95.00000000,79.00042726
718,95.00000000,78.00041200
719,95.00000000,79.00042726
720,95.00000000,80.00044252
721,95.00000000,79.00042726
722,95.00000000,80.00044252
723,95.00000000,78.00041200
724,95.00000000,76.00038148
725,95.00000000,73.00033570
726,95.00000000,72.00032044
727,95.00000000,72.00032044
728,95.00000000,72.00032044
729,95.00000000,73.00033570
730,95.00000000,73.00033570
731,95.00000000,74.00035096
732,95.00000000,73.00033570
733,95.00000000,72.00032044
734,95.00000000,70.00028993
735,95.00000000,70.00028993
736,95.00000000,69.00027467
737,95.00000000,69.00027467
738,95.00000000,68.00025941
739,95.00000000,68.00025941
740,95.00000000,68.00025941
741,95.00000000,68.00025941
742,95.00000000,69.00027467
743,95.00000000,70.00028993
744,95.00000000,72.00032044
745,95.00000000,72.00032044
746,95.00000000,73.00033570
747,95.00000000,71.00030518
748,95.00000000,69.00027467
749,95.00000000,69.00027467
750,95.00000000,69.00027467
751,95.00000000,69.00027467
752,95.00000000,70.00028993
753,95.00000000,71.00030518
754,95.00000000,72.00032044
755,95.00000000,73.00033570
756,95.00000000,73.00033570
757,95.00000000,74.00035096
758,95.00000000,73.00033570
759,95.00000000,74.00035096
760,95.00000000,73.00033570
761,95.00000000,73.00033570
762,95.00000000,74.00035096
763,95.00000000,74.00035096
764,95.00000000,75.00036622
765,95.00000000,75.00036622
766,95.00000000,73.00033570
767,95.00000000,72.00032044
768,95.00000000,71.00030518
769,95.00000000,71.00030518
770,95.00000000,70.00028993
771,95.00000000,71.00030518
772,95.00000000,73.00033570
773,95.00000000,76.00038148
774,95.00000000,76.00038148
775,95.00000000,78.00041200
776,95.00000000,78.00041200
777,95.00000000,79.00042726
778,95.00000000,79.00042726
779,95.00000000,78.00041200
780,95.00000000,77.00039674
781,95.00000000,77.00039674
782,95.00000000,77.00039674
783,95.00000000,77.00039674
784,95.00000000,78.00041200
785,95.00000000,78.00041200
786,95.00000000,78.00041200
787,95.00000000,78.00041200
788,95.00000000,78.00041200
789,95.00000000,79.00042726
790,95.00000000,79.00042726
791,95.00000000,78.00041200
792,95.00000000,77.00039674
793,95.00000000,76.00038148
794,95.00000000,75.00036622
795,95.00000000,74.00035096
796,95.00000000,74.00035096
797,95.00000000,74.00035096
798,95.00000000,74.00035096
799,95.00000000,76.00038148
800,95.00000000,76.00038148
801,95.00000000,77.00039674
802,95.00000000,78.00041200
803,95.00000000,77.00039674
804,95.00000000,77.00039674
805,95.00000000,77.00039674
806,95.00000000,78.00041200
807,95.00000000,78.00041200
808,95.00000000,78.00041200
809,95.00000000,77.00039674
810,95.00000000,77.00039674
811,95.00000000,76.00038148
812,95.00000000,74.00035096
813,95.00000000,74.00035096
814,95.00000000,73.00033570
815,95.00000000,73.00033570
816,95.00000000,73.00033570
817,95.00000000,74.00035096
818,95.00000000,74.00035096
819,95.00000000,73.00033570
820,95.00000000,73.00033570
821,95.00000000,74.00035096
822,95.00000000,74.00035096
823,95.00000000,73.00033570
824,95.00000000,74.00035096
825,95.00000000,72.00032044
826,95.00000000,71.00030518
827,95.00000000,70.00028993
828,95.00000000,71.00030518
829,95.00000000,71.00030518
830,95.00000000,73.00033570
831,95.00000000,74.00035096
832,95.00000000,75.00036622
833,95.00000000,74.00035096
834,95.00000000,73.00033570
835,95.00000000,72.00032044
836,95.00000000,72.00032044
837,95.00000000,73.00033570
838,95.00000000,73.00033570
839,95.00000000,74.00035096
840,95.00000000,75.00036622
841,95.00000000,75.00036622
842,95.00000000,74.00035096
843,95.00000000,74.00035096
844,95.00000000,74.00035096
845,95.00000000,74.00035096
846,95.00000000,75.00036622
847,95.00000000,77.00039674
848,95.00000000,79.00042726
849,95.00000000,79.00042726
850,95.00000000,81.00045778
851,95.00000000,80.00044252
852,95.00000000,80.00044252
853,95.00000000,79.00042726
854,95.00000000,79.00042726
855,95.00000000,78.00041200
856,95.00000000,78.00041200
857,95.00000000,79.00042726
858,95.00000000,78.00041200
859,95.00000000,79.00042726
860,95.00000000,79.00042726
861,95.00000000,80.00044252
862,95.00000000,80.00044252
863,95.99993896,80.00044252
864,95.99993896,80.00044252
865,95.99993896,80.00044252
866,95.99993896,80.00044252
867,95.00000000,79.00042726
868,95.00000000,79.00042726
869,95.00000000,79.00042726
870,95.00000000,79.00042726
871,95.00000000,80.00044252
872,95.00000000,81.00045778
873,95.99993896,79.00042726
874,95.00000000,79.00042726
875,95.00000000,78.00041200
876,95.00000000,77.00039674
877,95.00000000,76.00038148
878,95.00000000,76.00038148
879,95.00000000,77.00039674
880,95.00000000,78.00041200
881,95.00000000,78.00041200
882,95.00000000,78.00041200
883,95.00000000,78.00041200
884,95.00000000,78.00041200
885,95.00000000,78.00041200
886,95.00000000,78.00041200
887,95.00000000,79.00042726
888,95.00000000,78.00041200
889,95.00000000,78.00041200
890,95.00000000,78.00041200
891,95.00000000,76.00038148
892,95.00000000,76.00038148
893,95.00000000,76.00038148
894,95.00000000,76.00038148
895,95.00000000,75.00036622
896,95.00000000,75.00036622
897,95.00000000,75.00036622
898,95.00000000,75.00036622
899,95.00000000,75.00036622
900,95.00000000,76.00038148
901,95.00000000,78.00041200
902,95.00000000,78.00041200
903,95.00000000,79.00042726
904,95.00000000,78.00041200
905,95.00000000,79.00042726
906,95.00000000,78.00041200
907,95.00000000,77.00039674
908,95.00000000,77.00039674
909,95.00000000,77.00039674
910,95.00000000,77.00039674
911,95.00000000,78.00041200
912,95.00000000,78.00041200
913,95.00000000,78.00041200
914,95.00000000,78.00041200
915,95.00000000,78.00041200
916,95.00000000,78.00041200
917,95.00000000,78.00041200
918,95.00000000,78.00041200
919,95.00000000,78.00041200
920,95.00000000,78.00041200
921,95.00000000,78.00041200
922,95.00000000,78.00041200
923,95.00000000,79.00042726
924,95.00000000,79.00042726
925,95.99993896,79.00042726
926,95.99993896,77.00039674
927,95.99993896,77.00039674
928,95.99993896,76.00038148
929,95.99993896,81.00045778
930,95.99993896,83.00048830
931,95.99993896,87.00054933
932,95.99993896,87.00054933
933,95.99993896,92.99986267
934,96.99995422,90.99983215
935,96.99995422,89.99981689
936,96.99995422,87.99978637
937,96.99995422,87.99978637
938,96.99995422,87.99978637
939,96.99995422,88.99980163
940,96.99995422,88.99980163
941,96.99995422,88.99980163
942,96.99995422,87.99978637
943,96.99995422,87.99978637
944,96.99995422,88.99980163
945,95.99993896,89.99981689
946,95.99993896,90.99983215
947,95.99993896,90.99983215
948,95.99993896,89.99981689
949,95.99993896,89.99981689
950,95.99993896,89.99981689
951,95.99993896,89.99981689
952,95.99993896,90.99983215
953,95.99993896,90.99983215
954,95.99993896,90.99983215
955,95.99993896,90.99983215
956,95.99993896,92.99986267
957,95.99993896,93.99987793
958,95.99993896,91.99984741
959,95.99993896,88.99980163
960,95.99993896,88.99980163
961,95.99993896,87.00054933
962,95.99993896,86.00053407
963,95.99993896,86.00053407
964,96.99995422,83.00048830
965,96.99995422,83.00048830
966,96.99995422,82.00047304
967,96.99995422,82.00047304
968,96.99995422,83.00048830
969,96.99995422,83.00048830
970,96.99995422,83.00048830
971,96.99995422,84.00050356
972,96.99995422,84.00050356
973,95.99993896,85.00051881
974,95.99993896,85.00051881
975,95.99993896,87.99978637
976,95.99993896,87.99978637
977,95.99993896,87.99978637
978,95.99993896,87.99978637
979,95.99993896,87.99978637
980,95.99993896,87.99978637
981,95.99993896,87.99978637
982,95.99993896,87.99978637
983,95.99993896,87.99978637
984,95.99993896,87.99978637
985,95.99993896,87.99978637
986,95.99993896,87.99978637
987,95.99993896,87.99978637
988,95.99993896,87.99978637
989,95.99993896,87.99978637
990,95.99993896,87.00054933
991,95.99993896,87.00054933
992,95.00000000,86.00053407
993,95.99993896,86.00053407
994,95.99993896,86.00053407
995,95.99993896,86.00053407
996,95.99993896,86.00053407
997,95.99993896,86.00053407
998,95.99993896,85.00051881
999,95.99993896,84.00050356
1000,95.99993896,83.00048830
1001,95.99993896,83.00048830
1002,95.99993896,83.00048830
1003,95.99993896,84.00050356
1004,95.99993896,84.00050356
1005,95.99993896,85.00051881
1006,95.99993896,85.00051881
1007,95.99993896,84.00050356
1008,95.99993896,84.00050356
1009,95.99993896,82.00047304
1010,95.99993896,82.00047304
1011,95.99993896,83.00048830
1012,96.99995422,82.00047304
1013,96.99995422,82.00047304
1014,96.99995422,81.00045778
1015,96.99995422,81.00045778
1016,96.99995422,81.00045778
1017,95.99993896,82.00047304
1018,95.99993896,82.00047304
1019,95.99993896,81.00045778
1020,95.99993896,80.00044252
1021,96.99995422,79.00042726
1022,96.99995422,79.00042726
1023,96.99995422,80.00044252
1024,96.99995422,80.00044252
1025,95.99993896,81.00045778
1026,95.99993896,82.00047304
1027,95.99993896,82.00047304
1028,95.99993896,83.00048830
1029,95.99993896,82.00047304
1030,95.99993896,82.00047304
1031,95.99993896,83.00048830
1032,95.99993896,85.00051881
1033,96.99995422,85.00051881
1034,96.99995422,85.00051881
1035,96.99995422,83.00048830
1036,96.99995422,81.00045778
1037,96.99995422,77.00039674
1038,95.99993896,77.00039674
1039,95.99993896,77.00039674
1040,95.99993896,77.00039674
1041,95.99993896,75.00036622
1042,95.99993896,75.00036622
1043,95.99993896,75.00036622
1044,95.99993896,75.00036622
1045,95.99993896,75.00036622
1046,95.99993896,76.00038148
1047,95.99993896,77.00039674
1048,95.99993896,77.00039674
1049,95.99993896,77.00039674
1050,95.99993896,78.00041200
1051,96.99995422,79.00042726
1052,96.99995422,83.00048830
1053,97.99996948,83.00048830
1054,96.99995422,84.00050356
1055,96.99995422,86.00053407
1056,96.99995422,86.00053407
1057,96.99995422,86.00053407
1058,96.99995422,85.00051881
1059,96.99995422,84.00050356
1060,96.99995422,84.00050356
1061,96.99995422,83.00048830
1062,96.99995422,82.00047304
1063,96.99995422,81.00045778
1064,96.99995422,81.00045778
1065,96.99995422,81.00045778
1066,96.99995422,81.00045778
1067,96.99995422,81.00045778
1068,95.99993896,81.00045778
1069,95.99993896,81.00045778
1070,95.99993896,80.00044252
1071,95.99993896,80.00044252
1072,96.99995422,80.00044252
1073,96.99995422,79.00042726
1074,96.99995422,79.00042726
1075,96.99995422,79.00042726
1076,96.99995422,80.00044252
1077,96.99995422,80.00044252
1078,96.99995422,80.00044252
1079,96.99995422,80.00044252
1080,96.99995422,80.00044252
1081,96.99995422,80.00044252
1082,96.99995422,80.00044252
1083,96.99995422,79.00042726
1084,95.99993896,79.00042726
1085,95.99993896,76.00038148
1086,95.99993896,76.00038148
1087,95.99993896,75.00036622
1088,95.99993896,75.00036622
1089,95.99993896,77.00039674
1090,96.99995422,80.00044252
1091,96.99995422,80.00044252
1092,97.99996948,81.00045778
1093,97.99996948,79.00042726
1094,97.99996948,78.00041200
1095,96.99995422,76.00038148
1096,96.99995422,76.00038148
1097,96.99995422,77.00039674
1098,96.99995422,77.00039674
1099,96.99995422,77.00039674
1100,96.99995422,81.00045778
1101,96.99995422,81.00045778
1102,96.99995422,81.00045778
1103,96.99995422,82.00047304
1104,96.99995422,82.00047304
1105,96.99995422,82.00047304
1106,96.99995422,83.00048830
1107,96.99995422,84.00050356
1108,96.99995422,84.00050356
1109,96.99995422,84.00050356
1110,96.99995422,84.00050356
1111,96.99995422,83.00048830
1112,96.99995422,82.00047304
1113,96.99995422,82.00047304
1114,96.99995422,82.00047304
1115,96.99995422,82.00047304
1116,96.99995422,82.00047304
1117,96.99995422,81.00045778
1118,96.99995422,81.00045778
1119,96.99995422,81.00045778
1120,96.99995422,81.00045778
1121,96.99995422,81.00045778
1122,96.99995422,80.00044252
1123,96.99995422,80.00044252
1124,96.99995422,80.00044252
1125,96.99995422,80.00044252
1126,96.99995422,81.00045778
1127,96.99995422,81.00045778
1128,96.99995422,81.00045778
1129,96.99995422,81.00045778
1130,96.99995422,82.00047304
1131,96.99995422,82.00047304
1132,96.99995422,82.00047304
1133,97.99996948,83.00048830
1134,96.99995422,82.00047304
1135,96.99995422,82.00047304
1136,96.99995422,82.00047304
1137,95.99993896,81.00045778
1138,95.99993896,80.00044252
1139,96.99995422,80.00044252
1140,96.99995422,80.00044252
1141,96.99995422,79.00042726
1142,96.99995422,78.00041200
1143,96.99995422,81.00045778
1144,96.99995422,83.00048830
1145,95.99993896,86.00053407
1146,96.99995422,86.00053407
1147,96.99995422,85.00051881
1148,95.99993896,84.00050356
1149,95.99993896,83.00048830
1150,95.99993896,83.00048830
1151,95.99993896,83.00048830
1152,95.99993896,83.00048830
1153,96.99995422,82.00047304
1154,96.99995422,82.00047304
1155,97.99996948,82.00047304
1156,97.99996948,82.00047304
1157,97.99996948,82.00047304
1158,97.99996948,81.00045778
1159,96.99995422,81.00045778
1160,96.99995422,80.00044252
1161,96.99995422,80.00044252
1162,96.99995422,81.00045778
1163,96.99995422,81.00045778
1164,96.99995422,81.00045778
1165,96.99995422,83.00048830
1166,97.99996948,84.00050356
1167,97.99996948,87.99978637
1168,97.99996948,87.99978637
1169,97.99996948,87.99978637
1170,96.99995422,87.99978637
1171,96.99995422,87.00054933
1172,96.99995422,87.99978637
1173,96.99995422,87.99978637
1174,96.99995422,87.99978637
1175,96.99995422,87.99978637
1176,96.99995422,87.99978637
1177,96.99995422,87.99978637
1178,96.99995422,87.99978637
1179,96.99995422,88.99980163
1180,96.99995422,88.99980163
1181,95.99993896,89.99981689
1182,95.99993896,89.99981689
1183,95.99993896,89.99981689
1184,95.99993896,86.00053407
1185,95.99993896,82.00047304
1186,95.99993896,78.00041200
1187,95.99993896,77.00039674
1188,95.99993896,78.00041200
1189,95.99993896,80.00044252
1190,95.99993896,80.00044252
1191,95.99993896,81.00045778
1192,96.99995422,82.00047304
1193,96.99995422,84.00050356
1194,96.99995422,82.00047304
1195,96.99995422,80.00044252
1196,96.99995422,78.00041200
1197,96.99995422,76.00038148
1198,96.99995422,76.00038148
1199,96.99995422,78.00041200
1200,95.99993896,78.00041200
1201,95.99993896,80.00044252
1202,95.99993896,80.00044252
1203,95.99993896,80.00044252
1204,95.99993896,81.00045778
1205,95.99993896,79.00042726
1206,96.99995422,78.00041200
1207,96.99995422,77.00039674
1208,96.99995422,77.00039674
1209,96.99995422,78.00041200
1210,96.99995422,79.00042726
1211,96.99995422,82.00047304
1212,96.99995422,82.00047304
1213,96.99995422,83.00048830
1214,96.99995422,83.00048830
1215,96.99995422,84.00050356
1216,96.99995422,84.00050356
1217,96.99995422,84.00050356
1218,97.99996948,85.00051881
1219,97.99996948,85.00051881
1220,97.99996948,85.00051881
1221,97.99996948,85.00051881
1222,96.99995422,82.00047304
1223,96.99995422,79.00042726
1224,96.99995422,76.00038148
1225,96.99995422,75.00036622
1226,97.99996948,77.00039674
1227,96.99995422,78.00041200
1228,96.99995422,78.00041200
1229,96.99995422,79.00042726
1230,96.99995422,80.00044252
1231,96.99995422,80.00044252
1232,96.99995422,81.00045778
1233,96.99995422,80.00044252
1234,96.99995422,80.00044252
1235,96.99995422,82.00047304
1236,96.99995422,82.00047304
1237,96.99995422,86.00053407
1238,96.99995422,86.00053407
1239,96.99995422,87.00054933
1240,96.99995422,85.00051881
1241,96.99995422,81.00045778
1242,96.99995422,78.00041200
1243,96.99995422,77.00039674
1244,95.99993896,76.00038148
1245,95.99993896,76.00038148
1246,95.99993896,77.00039674
1247,95.99993896,77.00039674
1248,96.99995422,79.00042726
1249,96.99995422,79.00042726
1250,96.99995422,81.00045778
1251,96.99995422,81.00045778
1252,96.99995422,81.00045778
1253,96.99995422,81.00045778
1254,96.99995422,81.00045778
1255,96.99995422,81.00045778
1256,96.99995422,82.00047304
1257,97.99996948,83.00048830
1258,96.99995422,81.00045778
1259,96.99995422,81.00045778
1260,96.99995422,81.00045778
1261,96.99995422,80.00044252
1262,96.99995422,78.00041200
1263,96.99995422,77.00039674
1264,96.99995422,77.00039674
1265,96.99995422,79.00042726
1266,96.99995422,80.00044252
1267,96.99995422,83.00048830
1268,96.99995422,83.00048830
1269,96.99995422,83.00048830
1270,96.99995422,81.00045778
1271,96.99995422,81.00045778
1272,96.99995422,81.00045778
1273,96.99995422,81.00045778
1274,96.99995422,80.00044252
1275,96.99995422,81.00045778
1276,96.99995422,81.00045778
1277,96.99995422,82.00047304
1278,96.99995422,83.00048830
1279,96.99995422,82.00047304
1280,96.99995422,80.00044252
1281,96.99995422,78.00041200
1282,95.99993896,77.00039674
1283,95.99993896,77.00039674
1284,95.99993896,77.00039674
1285,95.99993896,77.00039674
1286,95.99993896,77.00039674
1287,95.99993896,75.00036622
1288,95.99993896,75.00036622
1289,95.99993896,76.00038148
1290,95.99993896,79.00042726
1291,95.99993896,79.00042726
1292,95.99993896,81.00045778
1293,96.99995422,81.00045778
1294,96.99995422,84.00050356
1295,96.99995422,84.00050356
1296,96.99995422,84.00050356
1297,96.99995422,83.00048830
1298,96.99995422,83.00048830
1299,96.99995422,84.00050356
1300,96.99995422,83.00048830
1301,96.99995422,83.00048830
1302,96.99995422,83.00048830
1303,96.99995422,83.00048830
1304,96.99995422,83.00048830
1305,96.99995422,83.00048830
1306,96.99995422,83.00048830
1307,96.99995422,83.00048830
1308,96.99995422,83.00048830
1309,96.99995422,81.00045778
1310,96.99995422,80.00044252
1311,97.99996948,79.00042726
1312,97.99996948,78.00041200
1313,97.99996948,77.00039674
1314,97.99996948,77.00039674
1315,96.99995422,78.00041200
1316,96.99995422,78.00041200
1317,96.99995422,78.00041200
1318,96.99995422,78.00041200
1319,96.99995422,78.00041200
1320,96.99995422,79.00042726
1321,95.99993896,79.00042726
1322,95.99993896,79.00042726
1323,95.99993896,79.00042726
1324,95.99993896,79.00042726
1325,95.99993896,79.00042726
1326,97.99996948,85.00051881
1327,97.99996948,85.00051881
1328,97.99996948,85.00051881
1329,97.99996948,85.00051881
1330,97.99996948,85.00051881
1331,97.99996948,85.00051881
1332,97.99996948,85.00051881
1333,97.99996948,83.00048830
1334,97.99996948,82.00047304
1335,96.99995422,75.00036622
1336,96.99995422,74.00035096
1337,96.99995422,73.00033570
1338,95.99993896,73.00033570
1339,95.99993896,72.00032044
1340,95.99993896,72.00032044
1341,95.99993896,73.00033570
1342,95.99993896,72.00032044
1343,95.99993896,72.00032044
1344,95.99993896,73.00033570
1345,95.99993896,73.00033570
1346,95.99993896,72.00032044
1347,95.99993896,71.00030518
1348,95.99993896,69.00027467
1349,95.99993896,68.00025941
1350,95.99993896,67.00024415
1351,95.99993896,67.00024415
1352,95.99993896,67.00024415
1353,95.99993896,68.00025941
1354,95.99993896,67.00024415
1355,95.99993896,68.00025941
1356,95.99993896,68.00025941
1357,95.99993896,70.00028993
1358,95.99993896,70.00028993
1359,95.99993896,70.00028993
1360,95.99993896,68.00025941
1361,95.99993896,68.00025941
1362,95.99993896,67.00024415
1363,95.99993896,66.00022889
1364,95.99993896,66.00022889
1365,95.99993896,67.00024415
1366,95.99993896,67.00024415
1367,95.99993896,67.00024415
1368,95.99993896,67.00024415
1369,95.99993896,68.00025941
1370,95.99993896,68.00025941
1371,95.99993896,68.00025941
1372,95.99993896,67.00024415
1373,95.00000000,65.00021363
1374,95.00000000,65.00021363
1375,95.00000000,65.00021363
1376,95.00000000,66.00022889
1377,95.00000000,66.00022889
1378,95.00000000,67.00024415
1379,95.00000000,68.00025941
1380,95.00000000,68.00025941
1381,95.00000000,67.00024415
1382,95.00000000,66.00022889
1383,95.00000000,65.00021363
1384,95.00000000,65.00021363
1385,95.00000000,65.00021363
1386,95.00000000,67.00024415
1387,95.00000000,66.00022889
1388,95.00000000,68.00025941
1389,95.00000000,66.00022889
1390,95.00000000,67.00024415
1391,95.00000000,65.00021363
1392,95.00000000,65.00021363
1393,95.00000000,65.00021363
1394,95.00000000,66.00022889
1395,95.00000000,66.00022889
1396,95.00000000,66.00022889
1397,95.00000000,66.00022889
1398,95.00000000,66.00022889
1399,95.00000000,67.00024415
1400,95.00000000,67.00024415
1401,95.00000000,67.00024415
1402,95.00000000,67.00024415
1403,95.00000000,68.00025941
1404,95.00000000,69.00027467
1405,95.00000000,69.00027467
1406,95.00000000,70.00028993
1407,95.00000000,70.00028993
1408,95.00000000,70.00028993
1409,95.00000000,70.00028993
1410,95.00000000,70.00028993
1411,95.00000000,71.00030518
1412,95.00000000,70.00028993
1413,95.00000000,70.00028993
1414,95.00000000,70.00028993
1415,95.00000000,71.00030518
1416,95.00000000,72.00032044
1417,95.00000000,71.00030518
1418,95.00000000,72.00032044
1419,95.00000000,68.00025941
1420,95.00000000,66.00022889
1421,95.00000000,65.00021363
1422,95.00000000,67.00024415
1423,95.00000000,66.00022889
1424,95.00000000,67.00024415
1425,95.00000000,66.00022889
1426,95.00000000,67.00024415
1427,95.00000000,66.00022889
1428,95.00000000,67.00024415
1429,95.00000000,68.00025941
1430,95.00000000,68.00025941
1431,95.00000000,68.00025941
1432,95.00000000,67.00024415
1433,95.00000000,67.00024415
1434,95.00000000,67.00024415
1435,95.00000000,67.00024415
1436,95.00000000,68.00025941
1437,95.00000000,68.00025941
1438,95.00000000,69.00027467
1439,95.00000000,69.00027467
1440,95.00000000,69.00027467
1441,95.00000000,68.00025941
1442,95.00000000,69.00027467
1443,95.00000000,69.00027467
1444,95.00000000,69.00027467
1445,95.00000000,70.00028993
1446,95.00000000,70.00028993
1447,95.00000000,70.00028993
1448,95.00000000,70.00028993
1449,95.00000000,70.00028993
1450,95.00000000,71.00030518
1451,95.00000000,71.00030518
1452,95.00000000,72.00032044
1453,95.00000000,73.00033570
1454,95.00000000,74.00035096
1455,95.00000000,73.00033570
1456,95.00000000,72.00032044
1457,95.00000000,72.00032044
1458,95.00000000,72.00032044
1459,95.00000000,72.00032044
1460,95.00000000,73.00033570
1461,95.00000000,75.00036622
1462,95.00000000,75.00036622
1463,95.00000000,75.00036622
1464,94.00006104,74.00035096
1465,94.00006104,75.00036622
1466,93.00004578,77.00039674
1467,93.00004578,77.00039674
1468,93.00004578,78.00041200
1469,94.00006104,78.00041200
1470,94.00006104,78.00041200
1471,94.00006104,78.00041200
1472,95.00000000,78.00041200
1473,95.00000000,80.00044252
1474,95.00000000,80.00044252
1475,95.99993896,81.00045778
1476,95.99993896,79.00042726
1477,95.99993896,78.00041200
1478,95.99993896,74.00035096
1479,95.99993896,73.00033570
1480,95.99993896,73.00033570
1481,95.99993896,73.00033570
1482,95.99993896,73.00033570
1483,95.99993896,74.00035096
1484,95.99993896,77.00039674
1485,95.99993896,77.00039674
1486,95.99993896,77.00039674
1487,95.99993896,75.00036622
1488,95.99993896,73.00033570
1489,95.99993896,72.00032044
1490,95.99993896,71.00030518
1491,95.99993896,70.00028993
1492,95.99993896,70.00028993
1493,95.99993896,69.00027467
1494,95.99993896,69.00027467
1495,95.99993896,70.00028993
1496,95.99993896,72.00032044
1497,95.99993896,72.00032044
1498,95.99993896,71.00030518
1499,95.99993896,71.00030518
1500,95.99993896,71.00030518
1501,95.99993896,71.00030518
1502,95.99993896,71.00030518
1503,95.99993896,70.00028993
1504,95.00000000,71.00030518
1505,95.99993896,70.00028993
1506,95.99993896,70.00028993
1507,95.99993896,69.00027467
1508,95.99993896,69.00027467
1509,95.99993896,69.00027467
1510,95.99993896,69.00027467
1511,95.99993896,69.00027467
1512,95.99993896,68.00025941
1513,95.99993896,68.00025941
1514,95.99993896,68.00025941
1515,95.99993896,68.00025941
1516,95.99993896,69.00027467
1517,95.99993896,68.00025941
1518,95.99993896,69.00027467
1519,95.99993896,69.00027467
1520,95.99993896,69.00027467
1521,95.99993896,69.00027467
1522,95.99993896,69.00027467
1523,95.99993896,68.00025941
1524,95.99993896,69.00027467
1525,95.99993896,69.00027467
1526,95.99993896,69.00027467
1527,95.99993896,69.00027467
1528,95.99993896,69.00027467
1529,95.99993896,69.00027467
1530,95.99993896,70.00028993
1531,95.99993896,70.00028993
1532,95.99993896,71.00030518
1533,95.99993896,72.00032044
1534,95.99993896,72.00032044
1535,95.00000000,71.00030518
1536,95.00000000,71.00030518
1537,95.00000000,72.00032044
1538,95.00000000,72.00032044
1539,95.00000000,72.00032044
1540,95.00000000,72.00032044
1541,95.00000000,71.00030518
1542,95.00000000,70.00028993
1543,95.00000000,69.00027467
1544,95.00000000,69.00027467
1545,95.00000000,69.00027467
1546,95.00000000,70.00028993
1547,95.00000000,70.00028993
1548,95.00000000,72.00032044
1549,95.00000000,72.00032044
1550,95.00000000,72.00032044
1551,95.00000000,70.00028993
1552,95.00000000,70.00028993
1553,95.00000000,69.00027467
1554,95.00000000,69.00027467
1555,95.00000000,68.00025941
1556,95.00000000,68.00025941
1557,95.00000000,69.00027467
1558,95.00000000,69.00027467
1559,95.00000000,69.00027467
1560,95.00000000,70.00028993
1561,95.00000000,69.00027467
1562,95.99993896,69.00027467
1563,95.99993896,69.00027467
1564,95.99993896,69.00027467
1565,95.99993896,69.00027467
1566,95.99993896,69.00027467
1567,95.99993896,69.00027467
1568,95.99993896,68.00025941
1569,95.99993896,67.00024415
1570,95.99993896,67.00024415
1571,95.99993896,67.00024415
1572,95.99993896,66.00022889
1573,95.00000000,68.00025941
1574,95.00000000,70.00028993
1575,95.00000000,70.00028993
1576,95.00000000,70.00028993
1577,95.00000000,71.00030518
1578,95.00000000,70.00028993
1579,95.00000000,70.00028993
1580,95.00000000,70.00028993
1581,95.00000000,70.00028993
1582,95.00000000,71.00030518
1583,95.00000000,72.00032044
1584,95.00000000,72.00032044
1585,95.99993896,72.00032044
1586,95.99993896,72.00032044
1587,95.99993896,71.00030518
1588,95.99993896,70.00028993
1589,95.99993896,70.00028993
1590,95.99993896,70.00028993
1591,95.99993896,72.00032044
1592,95.99993896,72.00032044
1593,95.99993896,72.00032044
1594,95.99993896,73.00033570
1595,95.99993896,74.00035096
1596,95.00000000,74.00035096
1597,95.00000000,74.00035096
1598,95.00000000,74.00035096
1599,95.99993896,75.00036622
1600,95.99993896,75.00036622
1601,95.99993896,75.00036622
1602,95.99993896,76.00038148
1603,95.99993896,76.00038148
1604,95.99993896,76.00038148
1605,95.99993896,72.00032044
1606,95.99993896,70.00028993
1607,95.99993896,68.00025941
1608,95.99993896,67.00024415
1609,95.99993896,67.00024415
1610,95.99993896,66.00022889
1611,95.99993896,67.00024415
1612,95.99993896,67.00024415
1613,95.99993896,67.00024415
1614,95.99993896,67.00024415
1615,95.99993896,67.00024415
1616,95.00000000,67.00024415
1617,95.00000000,67.00024415
1618,95.00000000,67.00024415
1619,95.00000000,66.00022889
1620,95.00000000,66.00022889
1621,95.00000000,65.00021363
1622,95.00000000,64.00019837
1623,95.00000000,63.00018311
1624,95.00000000,63.00018311
1625,95.00000000,63.00018311
1626,95.00000000,63.00018311
1627,95.00000000,78.00041200
1628,95.00000000,78.00041200
1629,95.00000000,81.00045778
1630,95.99993896,89.99981689
1631,95.99993896,89.99981689
1632,95.99993896,89.99981689
1633,95.99993896,89.99981689
1634,95.99993896,89.99981689
1635,95.99993896,89.99981689
1636,95.99993896,89.99981689
1637,95.99993896,89.99981689
1638,95.99993896,91.99984741
1639,95.99993896,91.99984741
1640,95.99993896,91.99984741
1641,95.99993896,91.99984741
1642,95.99993896,93.99987793
1643,95.99993896,93.99987793
1644,95.99993896,93.99987793
1645,95.99993896,93.99987793
1646,95.99993896,93.99987793
1647,95.99993896,92.99986267
1648,95.99993896,92.99986267
1649,95.99993896,91.99984741
1650,95.99993896,87.00054933
1651,95.99993896,84.00050356
1652,95.99993896,84.00050356
1653,95.99993896,84.00050356
1654,95.99993896,84.00050356
1655,96.99995422,84.00050356
1656,96.99995422,84.00050356
1657,96.99995422,84.00050356
1658,96.99995422,84.00050356
1659,96.99995422,84.00050356
1660,96.99995422,84.00050356
1661,95.99993896,83.00048830
1662,95.99993896,83.00048830
1663,95.99993896,84.00050356
1664,95.99993896,85.00051881
1665,95.99993896,84.00050356
1666,97.99996948,83.00048830
1667,96.99995422,84.00050356
1668,96.99995422,83.00048830
1669,96.99995422,83.00048830
1670,96.99995422,79.00042726
1671,96.99995422,78.00041200
1672,96.99995422,77.00039674
1673,95.99993896,78.00041200
1674,95.99993896,77.00039674
1675,95.99993896,78.00041200
1676,96.99995422,79.00042726
1677,95.99993896,79.00042726
1678,95.99993896,79.00042726
1679,95.99993896,79.00042726
1680,95.99993896,79.00042726
1681,95.99993896,78.00041200
1682,95.99993896,77.00039674
1683,95.99993896,76.00038148
1684,95.99993896,76.00038148
1685,95.99993896,75.00036622
1686,95.99993896,75.00036622
1687,95.99993896,75.00036622
1688,95.00000000,74.00035096
1689,95.00000000,73.00033570
1690,95.00000000,72.00032044
1691,95.00000000,71.00030518
1692,95.00000000,69.00027467
1693,95.00000000,68.00025941
1694,95.00000000,67.00024415
1695,95.00000000,67.00024415
1696,95.00000000,67.00024415
1697,95.00000000,67.00024415
1698,95.00000000,68.00025941
1699,95.00000000,68.00025941
1700,95.00000000,70.00028993
1701,95.00000000,70.00028993
1702,95.00000000,70.00028993
1703,95.00000000,70.00028993
1704,95.00000000,70.00028993
1705,95.00000000,70.00028993
1706,95.00000000,70.00028993
1707,95.00000000,70.00028993
1708,95.00000000,70.00028993
1709,95.00000000,70.00028993
1710,95.00000000,70.00028993
1711,95.00000000,70.00028993
1712,95.00000000,70.00028993
1713,95.00000000,72.00032044
1714,95.00000000,73.00033570
1715,95.99993896,77.00039674
1716,95.99993896,79.00042726
1717,95.99993896,78.00041200
1718,95.99993896,78.00041200
1719,95.99993896,77.00039674
1720,95.99993896,76.00038148
1721,95.99993896,76.00038148
1722,95.99993896,76.00038148
1723,95.99993896,75.00036622
1724,95.99993896,75.00036622
1725,95.99993896,73.00033570
1726,95.00000000,73.00033570
1727,95.00000000,72.00032044
1728,95.00000000,71.00030518
1729,95.00000000,69.00027467
1730,95.00000000,68.00025941
1731,95.99993896,67.00024415
1732,95.00000000,67.00024415
1733,95.00000000,67.00024415
1734,95.00000000,67.00024415
1735,95.00000000,67.00024415
1736,95.99993896,68.00025941
1737,95.99993896,69.00027467
1738,95.99993896,70.00028993
1739,95.99993896,71.00030518
1740,95.99993896,71.00030518
1741,95.99993896,71.00030518
1742,95.99993896,69.00027467
1743,95.99993896,69.00027467
1744,95.99993896,68.00025941
1745,95.99993896,70.00028993
1746,95.99993896,69.00027467
1747,95.99993896,69.00027467
1748,95.99993896,72.00032044
1749,95.99993896,72.00032044
1750,95.99993896,71.00030518
1751,95.99993896,71.00030518
1752,95.99993896,71.00030518
1753,95.99993896,70.00028993
1754,95.99993896,69.00027467
1755,95.99993896,68.00025941
1756,95.99993896,69.00027467
1757,95.99993896,68.00025941
1758,95.99993896,68.00025941
1759,95.99993896,68.00025941
1760,95.99993896,68.00025941
1761,95.99993896,68.00025941
1762,95.99993896,68.00025941
1763,95.99993896,68.00025941
1764,95.99993896,68.00025941
1765,95.99993896,68.00025941
1766,95.99993896,67.00024415
1767,95.99993896,66.00022889
1768,95.99993896,66.00022889
1769,95.99993896,65.00021363
1770,95.99993896,65.00021363
1771,95.99993896,64.00019837
1772,95.99993896,63.00018311
1773,95.99993896,63.00018311
1774,95.99993896,63.00018311
1775,95.99993896,63.00018311
1776,95.99993896,64.00019837
1777,95.99993896,64.00019837
1778,95.99993896,63.00018311
1779,95.00000000,63.00018311
1780,95.00000000,63.00018311
1781,95.00000000,63.00018311
1782,95.00000000,64.00019837
1783,95.00000000,64.00019837
1784,95.00000000,65.00021363
1785,95.00000000,66.00022889
1786,95.00000000,67.00024415
1787,95.00000000,68.00025941
1788,95.00000000,68.00025941
1789,95.00000000,66.00022889
1790,95.00000000,65.00021363
1791,95.00000000,64.00019837
1792,95.00000000,65.00021363
1793,95.00000000,65.00021363
1794,95.00000000,65.00021363
1795,95.00000000,66.00022889
1796,95.00000000,66.00022889
1797,95.00000000,67.00024415
1798,95.00000000,67.00024415
1799,95.00000000,67.00024415
1800,95.99993896,66.00022889
1801,95.99993896,66.00022889
1802,95.99993896,66.00022889
1803,95.99993896,66.00022889
1804,95.99993896,66.00022889
1805,95.99993896,67.00024415
1806,95.99993896,67.00024415
1807,95.99993896,67.00024415
1808,95.99993896,69.00027467
1809,95.99993896,69.00027467
1810,95.99993896,69.00027467
1811,95.99993896,71.00030518
1812,95.99993896,72.00032044
1813,95.99993896,72.00032044
1814,95.99993896,72.00032044
1815,95.99993896,72.00032044
1816,95.99993896,72.00032044
1817,95.99993896,70.00028993
1818,95.99993896,69.00027467
1819,95.99993896,69.00027467
1820,95.99993896,68.00025941
1821,95.99993896,68.00025941
1822,95.99993896,68.00025941
1823,95.99993896,68.00025941
1824,95.99993896,67.00024415
1825,95.99993896,66.00022889
1826,95.99993896,67.00024415
1827,95.99993896,67.00024415
1828,95.99993896,67.00024415
1829,95.99993896,67.00024415
1830,95.99993896,67.00024415
1831,95.99993896,68.00025941
1832,95.99993896,69.00027467
1833,95.99993896,70.00028993
1834,95.99993896,70.00028993
1835,95.99993896,70.00028993
1836,95.99993896,70.00028993
1837,95.00000000,70.00028993
1838,95.00000000,70.00028993
1839,95.00000000,71.00030518
1840,95.00000000,71.00030518
1841,95.00000000,71.00030518
1842,95.00000000,73.00033570
1843,95.00000000,74.00035096
1844,95.00000000,72.00032044
1845,95.00000000,72.00032044
1846,95.00000000,73.00033570
1847,95.99993896,73.00033570
1848,95.99993896,71.00030518
1849,95.99993896,71.00030518
1850,95.99993896,72.00032044
1851,95.99993896,71.00030518
1852,95.99993896,71.00030518
1853,95.99993896,72.00032044
1854,95.99993896,71.00030518
1855,95.99993896,70.00028993
1856,95.99993896,69.00027467
1857,95.99993896,69.00027467
1858,95.99993896,67.00024415
1859,95.99993896,67.00024415
1860,95.99993896,66.00022889
1861,95.99993896,67.00024415
1862,95.99993896,66.00022889
1863,95.99993896,67.00024415
1864,95.99993896,67.00024415
1865,95.99993896,68.00025941
1866,95.99993896,69.00027467
1867,95.99993896,69.00027467
1868,95.00000000,70.00028993
1869,95.00000000,70.00028993
1870,95.00000000,68.00025941
1871,95.00000000,68.00025941
1872,95.00000000,68.00025941
1873,95.00000000,68.00025941
1874,95.00000000,68.00025941
1875,95.00000000,69.00027467
1876,95.00000000,69.00027467
1877,95.00000000,68.00025941
1878,95.00000000,67.00024415
1879,95.00000000,67.00024415
1880,95.00000000,66.00022889
1881,95.00000000,65.00021363
1882,95.00000000,65.00021363
1883,95.00000000,66.00022889
1884,95.00000000,65.00021363
1885,95.00000000,65.00021363
1886,95.99993896,66.00022889
1887,95.00000000,66.00022889
1888,95.00000000,66.00022889
1889,95.00000000,66.00022889
1890,95.00000000,67.00024415
1891,95.00000000,67.00024415
1892,95.00000000,66.00022889
1893,95.00000000,67.00024415
1894,95.00000000,68.00025941
1895,95.00000000,67.00024415
1896,95.00000000,68.00025941
1897,95.00000000,68.00025941
1898,95.00000000,67.00024415
1899,95.00000000,67.00024415
1900,95.00000000,67.00024415
1901,95.00000000,68.00025941
1902,95.00000000,68.00025941
1903,95.00000000,68.00025941
1904,95.00000000,69.00027467
1905,95.00000000,69.00027467
1906,95.00000000,69.00027467
1907,95.00000000,69.00027467
1908,95.00000000,68.00025941
1909,95.00000000,68.00025941
1910,95.00000000,68.00025941
1911,95.00000000,68.00025941
1912,95.00000000,67.00024415
1913,95.00000000,67.00024415
1914,95.99993896,69.00027467
1915,95.99993896,68.00025941
1916,95.99993896,69.00027467
1917,95.99993896,69.00027467
1918,95.99993896,70.00028993
1919,95.00000000,70.00028993
1920,95.00000000,70.00028993
1921,95.00000000,69.00027467
1922,95.00000000,69.00027467
1923,95.00000000,70.00028993
1924,95.00000000,70.00028993
1925,95.00000000,70.00028993
1926,95.00000000,71.00030518
1927,95.00000000,71.00030518
1928,95.00000000,71.00030518
1929,95.00000000,71.00030518
1930,95.00000000,71.00030518
1931,95.00000000,70.00028993
1932,95.00000000,71.00030518
1933,95.00000000,71.00030518
1934,95.00000000,71.00030518
1935,95.00000000,71.00030518
1936,95.00000000,73.00033570
1937,95.99993896,77.00039674
1938,95.99993896,77.00039674
1939,95.99993896,76.00038148
1940,95.99993896,75.00036622
1941,95.00000000,74.00035096
1942,95.00000000,73.00033570
1943,95.00000000,72.00032044
1944,95.00000000,72.00032044
1945,95.99993896,72.00032044
1946,95.99993896,72.00032044
1947,95.99993896,71.00030518
1948,95.99993896,71.00030518
1949,95.99993896,72.00032044
1950,95.99993896,72.00032044
1951,95.99993896,72.00032044
1952,95.99993896,72.00032044
1953,95.99993896,72.00032044
1954,95.99993896,72.00032044
1955,95.99993896,72.00032044
1956,95.99993896,72.00032044
1957,95.99993896,72.00032044
1958,95.99993896,73.00033570
1959,95.99993896,73.00033570
1960,95.99993896,73.00033570
1961,95.99993896,74.00035096
1962,95.99993896,74.00035096
1963,95.99993896,75.00036622
1964,95.99993896,76.00038148
1965,95.99993896,76.00038148
1966,95.99993896,76.00038148
1967,95.99993896,75.00036622
1968,95.99993896,74.00035096
1969,95.99993896,74.00035096
1970,95.99993896,73.00033570
1971,95.99993896,73.00033570
1972,95.99993896,72.00032044
1973,95.99993896,72.00032044
1974,95.99993896,73.00033570
1975,95.99993896,72.00032044
1976,95.99993896,72.00032044
1977,95.99993896,72.00032044
1978,95.99993896,71.00030518
1979,95.99993896,70.00028993
1980,95.99993896,69.00027467
1981,95.99993896,70.00028993
1982,95.99993896,69.00027467
1983,95.99993896,69.00027467
1984,95.99993896,69.00027467
1985,95.99993896,69.00027467
1986,96.99995422,94.99989318
1987,96.99995422,94.99989318
1988,96.99995422,98.99995422
1989,97.99996948,97.99993896
1990,97.99996948,97.99993896
1991,97.99996948,97.99993896
1992,97.99996948,97.99993896
1993,97.99996948,97.99993896
1994,97.99996948,96.99992370
1995,97.99996948,96.99992370
1996,97.99996948,94.99989318
1997,96.99995422,93.99987793
1998,96.99995422,92.99986267
1999,96.99995422,87.00054933
2000,96.99995422,84.00050356
2001,96.99995422,83.00048830
2002,96.99995422,80.00044252
2003,96.99995422,79.00042726
2004,96.99995422,79.00042726
2005,96.99995422,77.00039674
2006,96.99995422,74.00035096
2007,96.99995422,71.00030518
2008,96.99995422,69.00027467
2009,96.99995422,68.00025941
2010,95.99993896,67.00024415
2011,95.99993896,66.00022889
2012,95.99993896,66.00022889
2013,95.99993896,66.00022889
2014,95.99993896,66.00022889
2015,95.99993896,66.00022889
2016,95.99993896,66.00022889
2017,95.99993896,66.00022889
2018,95.00000000,65.00021363
2019,95.00000000,65.00021363
2020,95.00000000,66.00022889
2021,95.00000000,65.00021363
2022,95.00000000,65.00021363
2023,95.99993896,66.00022889
2024,95.99993896,66.00022889
2025,95.99993896,67.00024415
2026,95.99993896,67.00024415
2027,95.99993896,68.00025941
2028,95.99993896,68.00025941
2029,95.99993896,68.00025941
2030,95.99993896,67.00024415
2031,95.99993896,68.00025941
2032,95.99993896,67.00024415
2033,95.99993896,67.00024415
2034,95.99993896,67.00024415
2035,95.99993896,67.00024415
2036,95.99993896,67.00024415
2037,95.99993896,68.00025941
2038,95.99993896,67.00024415
2039,95.99993896,68.00025941
2040,95.99993896,66.00022889
2041,95.99993896,66.00022889
2042,95.99993896,65.00021363
2043,95.99993896,63.00018311
2044,95.99993896,62.00016785
2045,95.99993896,62.00016785
2046,95.99993896,62.00016785
2047,95.99993896,64.00019837
2048,95.99993896,64.00019837
2049,95.99993896,64.00019837
2050,95.99993896,66.00022889
2051,95.99993896,67.00024415
2052,95.99993896,67.00024415
2053,95.99993896,69.00027467
2054,95.99993896,69.00027467
2055,95.99993896,69.00027467
2056,95.00000000,68.00025941
2057,95.00000000,70.00028993
2058,95.00000000,68.00025941
2059,95.00000000,67.00024415
2060,95.00000000,69.00027467
2061,95.00000000,73.00033570
2062,95.00000000,75.00036622
2063,95.00000000,75.00036622
2064,95.00000000,74.00035096
2065,95.00000000,74.00035096
2066,95.99993896,74.00035096
2067,95.99993896,73.00033570
2068,95.99993896,73.00033570
2069,95.99993896,73.00033570
2070,95.99993896,73.00033570
2071,95.99993896,73.00033570
2072,95.99993896,73.00033570
2073,95.99993896,73.00033570
2074,95.99993896,72.00032044
2075,95.99993896,71.00030518
2076,95.99993896,69.00027467
2077,95.99993896,69.00027467
2078,95.99993896,69.00027467
2079,95.99993896,70.00028993
2080,95.99993896,70.00028993
2081,95.99993896,71.00030518
2082,95.99993896,71.00030518
2083,95.99993896,70.00028993
2084,95.99993896,69.00027467
2085,95.99993896,69.00027467
2086,95.99993896,68.00025941
2087,95.99993896,69.00027467
2088,95.99993896,70.00028993
2089,95.99993896,71.00030518
2090,95.00000000,71.00030518
2091,95.00000000,71.00030518
2092,95.00000000,69.00027467
2093,95.00000000,68.00025941
2094,95.00000000,68.00025941
2095,95.00000000,67.00024415
2096,95.00000000,67.00024415
2097,95.00000000,67.00024415
2098,95.99993896,67.00024415
2099,95.00000000,68.00025941
2100,95.99993896,68.00025941
2101,95.00000000,68.00025941
2102,95.00000000,68.00025941
2103,95.00000000,68.00025941
2104,95.00000000,69.00027467
2105,95.00000000,70.00028993
2106,95.00000000,70.00028993
2107,95.00000000,70.00028993
2108,95.99993896,70.00028993
2109,95.00000000,70.00028993
2110,95.99993896,70.00028993
2111,95.00000000,69.00027467
2112,95.99993896,70.00028993
2113,95.99993896,70.00028993
2114,95.99993896,70.00028993
2115,95.00000000,70.00028993
2116,95.99993896,71.00030518
2117,95.99993896,71.00030518
2118,95.99993896,71.00030518
2119,95.99993896,70.00028993
2120,95.99993896,69.00027467
2121,95.99993896,68.00025941
2122,95.99993896,67.00024415
2123,95.99993896,67.00024415
2124,95.99993896,66.00022889
2125,95.99993896,66.00022889
2126,95.99993896,66.00022889
2127,95.99993896,65.00021363
2128,95.99993896,66.00022889
2129,95.99993896,66.00022889
2130,95.99993896,66.00022889
2131,95.99993896,66.00022889
2132,95.99993896,67.00024415
2133,95.99993896,67.00024415
2134,95.99993896,67.00024415
2135,95.99993896,67.00024415
2136,95.00000000,68.00025941
2137,95.00000000,68.00025941
2138,95.00000000,68.00025941
2139,95.00000000,68.00025941
2140,95.00000000,68.00025941
2141,95.00000000,67.00024415
2142,95.00000000,66.00022889
2143,95.99993896,67.00024415
2144,95.99993896,66.00022889
2145,95.99993896,66.00022889
2146,95.99993896,65.00021363
2147,95.99993896,66.00022889
2148,95.99993896,66.00022889
2149,95.99993896,66.00022889
2150,95.99993896,66.00022889
2151,95.99993896,66.00022889
2152,95.99993896,67.00024415
2153,95.99993896,66.00022889
2154,95.99993896,67.00024415
2155,95.99993896,67.00024415
2156,95.99993896,66.00022889
2157,95.99993896,66.00022889
2158,95.99993896,66.00022889
2159,95.99993896,65.00021363
2160,95.99993896,65.00021363
2161,95.99993896,65.00021363
2162,95.99993896,65.00021363
2163,95.99993896,65.00021363
2164,95.99993896,65.00021363
2165,95.99993896,65.00021363
2166,95.99993896,65.00021363
2167,95.99993896,65.00021363
2168,95.99993896,65.00021363
2169,95.00000000,65.00021363
2170,95.00000000,66.00022889
2171,95.00000000,65.00021363
2172,95.00000000,65.00021363
2173,95.00000000,66.00022889
2174,95.00000000,67.00024415
2175,95.00000000,67.00024415
2176,95.00000000,67.00024415
2177,95.00000000,67.00024415
2178,95.00000000,67.00024415
2179,95.00000000,67.00024415
2180,95.00000000,67.00024415
2181,95.00000000,67.00024415
2182,95.00000000,67.00024415
2183,95.00000000,67.00024415
2184,95.00000000,67.00024415
2185,95.00000000,67.00024415
2186,95.00000000,68.00025941
2187,95.00000000,68.00025941
2188,95.00000000,68.00025941
2189,95.00000000,69.00027467
2190,95.00000000,69.00027467
2191,95.00000000,68.00025941
2192,95.00000000,68.00025941
2193,95.00000000,68.00025941
2194,95.00000000,68.00025941
2195,95.00000000,67.00024415
2196,95.00000000,67.00024415
2197,95.00000000,66.00022889
2198,95.00000000,66.00022889
2199,95.00000000,65.00021363
2200,95.99993896,66.00022889
2201,95.99993896,65.00021363
2202,95.99993896,65.00021363
2203,95.99993896,65.00021363
2204,95.99993896,66.00022889
2205,95.99993896,67.00024415
2206,95.99993896,67.00024415
2207,95.99993896,67.00024415
2208,95.99993896,67.00024415
2209,95.99993896,67.00024415
2210,95.99993896,67.00024415
2211,95.99993896,66.00022889
2212,95.99993896,67.00024415
2213,95.99993896,66.00022889
2214,95.99993896,67.00024415
2215,95.99993896,67.00024415
2216,95.99993896,67.00024415
2217,95.99993896,68.00025941
2218,95.99993896,67.00024415
2219,95.99993896,67.00024415
2220,95.99993896,66.00022889
2221,95.99993896,67.00024415
2222,95.99993896,67.00024415
2223,95.99993896,67.00024415
2224,95.99993896,68.00025941
2225,95.99993896,68.00025941
2226,95.99993896,69.00027467
2227,95.99993896,68.00025941
2228,95.99993896,68.00025941
2229,95.99993896,67.00024415
2230,95.99993896,66.00022889
2231,95.99993896,66.00022889
2232,95.99993896,66.00022889
2233,95.99993896,66.00022889
2234,95.99993896,68.00025941
2235,95.99993896,70.00028993
2236,95.99993896,70.00028993
2237,95.00000000,71.00030518
2238,95.00000000,72.00032044
2239,95.00000000,73.00033570
2240,95.00000000,73.00033570
2241,95.00000000,73.00033570
2242,95.00000000,72.00032044
2243,95.99993896,72.00032044
2244,95.99993896,72.00032044
2245,95.99993896,71.00030518
2246,95.99993896,70.00028993
2247,95.99993896,70.00028993
2248,95.99993896,70.00028993
2249,95.99993896,70.00028993
2250,95.99993896,69.00027467
2251,95.99993896,70.00028993
2252,95.99993896,69.00027467
2253,95.99993896,69.00027467
2254,95.99993896,68.00025941
2255,95.99993896,67.00024415
2256,95.99993896,67.00024415
2257,95.99993896,67.00024415
2258,95.99993896,67.00024415
2259,95.99993896,67.00024415
2260,95.99993896,68.00025941
2261,95.99993896,68.00025941
2262,95.99993896,69.00027467
2263,95.99993896,68.00025941
2264,95.99993896,68.00025941
2265,95.99993896,68.00025941
2266,95.99993896,68.00025941
2267,95.99993896,70.00028993
2268,95.99993896,70.00028993
2269,95.99993896,70.00028993
2270,95.99993896,72.00032044
2271,95.99993896,72.00032044
2272,95.99993896,72.00032044
2273,95.99993896,72.00032044
2274,95.99993896,72.00032044
2275,95.99993896,73.00033570
2276,95.99993896,73.00033570
2277,95.99993896,73.00033570
2278,95.99993896,74.00035096
2279,95.99993896,74.00035096
2280,95.99993896,74.00035096
2281,95.99993896,74.00035096
2282,95.99993896,70.00028993
2283,95.99993896,69.00027467
2284,95.99993896,68.00025941
2285,95.99993896,67.00024415
