'sample interval','SpO2','hr'
'1 sec','%','bpm'
0,95.99993896,95.00067141
1,96.99995422,93.00091556
2,95.99993896,92.00001526
3,95.99993896,90.00025941
4,95.99993896,89.00038148
5,95.99993896,88.00050356
6,95.99993896,88.00050356
7,95.99993896,88.00050356
8,96.99995422,88.00050356
9,96.99995422,90.00025941
10,96.99995422,92.00001526
11,96.99995422,93.00091556
12,95.99993896,94.00079348
13,95.99993896,91.00013733
14,95.99993896,88.00050356
15,95.99993896,87.00062563
16,95.99993896,87.00062563
17,95.99993896,85.00086978
18,95.99993896,84.00099185
19,95.99993896,83.00009156
20,95.00000000,81.00033570
21,95.00000000,81.00033570
22,95.00000000,81.00033570
23,95.00000000,81.00033570
24,95.00000000,81.00033570
25,95.00000000,82.00021363
26,95.00000000,82.00021363
27,95.00000000,82.00021363
28,95.00000000,82.00021363
29,95.00000000,80.00045778
30,95.00000000,79.00057985
31,95.00000000,78.00070193
32,95.00000000,77.00082400
33,95.00000000,77.00082400
34,95.00000000,77.00082400
35,95.00000000,76.00094607
36,95.00000000,76.00094607
37,95.00000000,75.00004578
38,94.00006104,74.00016785
39,94.00006104,74.00016785
40,94.00006104,74.00016785
41,95.00000000,73.00028993
42,95.00000000,73.00028993
43,95.00000000,73.00028993
44,95.00000000,72.00041200
45,95.00000000,72.00041200
46,95.00000000,72.00041200
47,95.00000000,71.00053407
48,95.00000000,71.00053407
49,95.00000000,74.00016785
50,95.00000000,74.00016785
51,95.99993896,76.00094607
52,95.99993896,75.00004578
53,95.99993896,73.00028993
54,95.99993896,70.00065615
55,95.00000000,69.00077822
56,95.00000000,67.00000000
57,95.00000000,67.00000000
58,95.00000000,68.00090030
59,95.00000000,69.00077822
60,95.00000000,69.00077822
61,95.00000000,70.00065615
62,95.00000000,69.00077822
63,95.00000000,67.00000000
64,95.00000000,66.00012207
65,95.00000000,65.00024415
66,95.00000000,64.00036622
67,95.00000000,65.00024415
68,95.00000000,65.00024415
69,95.00000000,66.00012207
70,95.00000000,66.00012207
71,95.99993896,67.00000000
72,95.99993896,68.00090030
73,95.99993896,69.00077822
74,95.99993896,69.00077822
75,95.99993896,70.00065615
76,95.99993896,70.00065615
77,95.99993896,69.00077822
78,95.99993896,68.00090030
79,95.99993896,68.00090030
80,95.99993896,67.00000000
81,95.99993896,67.00000000
82,95.99993896,67.00000000
83,95.99993896,67.00000000
84,95.99993896,67.00000000
85,95.99993896,67.00000000
86,95.99993896,68.00090030
87,95.99993896,68.00090030
88,95.99993896,68.00090030
89,95.99993896,68.00090030
90,95.99993896,69.00077822
91,95.99993896,70.00065615
92,95.99993896,71.00053407
93,95.99993896,72.00041200
94,95.99993896,72.00041200
95,95.99993896,73.00028993
96,95.99993896,73.00028993
97,95.99993896,74.00016785
98,95.00000000,74.00016785
99,95.00000000,75.00004578
100,95.00000000,77.00082400
101,95.00000000,77.00082400
102,95.00000000,77.00082400
103,95.99993896,77.00082400
104,95.00000000,76.00094607
105,95.00000000,76.00094607
106,95.00000000,76.00094607
107,95.00000000,76.00094607
108,95.99993896,75.00004578
109,95.99993896,75.00004578
110,95.99993896,76.00094607
111,95.99993896,76.00094607
112,95.99993896,76.00094607
113,95.99993896,76.00094607
114,95.99993896,76.00094607
115,95.99993896,75.00004578
116,95.00000000,75.00004578
117,95.00000000,73.00028993
118,95.00000000,73.00028993
119,95.00000000,73.00028993
120,95.00000000,73.00028993
121,95.00000000,73.00028993
122,95.00000000,73.00028993
123,95.00000000,73.00028993
124,95.99993896,74.00016785
125,95.99993896,74.00016785
126,95.00000000,73.00028993
127,95.00000000,73.00028993
128,95.00000000,73.00028993
129,95.00000000,73.00028993
130,95.00000000,73.00028993
131,95.00000000,72.00041200
132,95.00000000,72.00041200
133,95.00000000,72.00041200
134,95.00000000,72.00041200
135,95.00000000,72.00041200
136,95.00000000,72.00041200
137,95.00000000,73.00028993
138,95.99993896,78.00070193
139,95.99993896,80.00045778
140,95.99993896,82.00021363
141,95.99993896,82.00021363
142,95.00000000,77.00082400
143,95.00000000,75.00004578
144,95.00000000,73.00028993
145,95.00000000,72.00041200
146,95.00000000,72.00041200
147,95.00000000,71.00053407
148,95.00000000,71.00053407
149,95.00000000,72.00041200
150,95.00000000,73.00028993
151,95.00000000,73.00028993
152,95.00000000,73.00028993
153,95.00000000,73.00028993
154,95.00000000,72.00041200
155,95.00000000,72.00041200
156,95.00000000,72.00041200
157,95.00000000,72.00041200
158,95.00000000,72.00041200
159,95.00000000,72.00041200
160,95.00000000,73.00028993
161,95.00000000,73.00028993
162,95.00000000,73.00028993
163,95.00000000,73.00028993
164,95.00000000,73.00028993
165,95.00000000,73.00028993
166,95.00000000,73.00028993
167,95.00000000,72.00041200
168,95.00000000,72.00041200
169,95.00000000,71.00053407
170,95.00000000,71.00053407
171,95.00000000,72.00041200
172,95.00000000,72.00041200
173,95.00000000,72.00041200
174,95.00000000,72.00041200
175,95.00000000,72.00041200
176,95.00000000,72.00041200
177,95.00000000,72.00041200
178,95.00000000,71.00053407
179,95.00000000,70.00065615
180,95.00000000,70.00065615
181,95.00000000,69.00077822
182,95.00000000,69.00077822
183,95.00000000,71.00053407
184,95.00000000,71.00053407
185,95.00000000,73.00028993
186,95.00000000,74.00016785
187,95.00000000,75.00004578
188,95.00000000,73.00028993
189,95.00000000,72.00041200
190,95.00000000,72.00041200
191,95.00000000,72.00041200
192,95.00000000,71.00053407
193,95.00000000,71.00053407
194,95.00000000,72.00041200
195,95.00000000,72.00041200
196,95.00000000,72.00041200
197,95.00000000,71.00053407
198,95.00000000,71.00053407
199,95.00000000,70.00065615
200,95.00000000,69.00077822
201,95.00000000,69.00077822
202,95.00000000,70.00065615
203,95.00000000,73.00028993
204,95.00000000,73.00028993
205,95.00000000,76.00094607
206,95.00000000,76.00094607
207,95.00000000,75.00004578
208,95.00000000,75.00004578
209,95.00000000,74.00016785
210,95.99993896,75.00004578
211,95.00000000,74.00016785
212,95.00000000,80.00045778
213,95.00000000,80.00045778
214,95.00000000,81.00033570
215,95.99993896,81.00033570
216,95.99993896,79.00057985
217,95.99993896,75.00004578
218,95.99993896,74.00016785
219,95.99993896,73.00028993
220,95.99993896,73.00028993
221,95.99993896,73.00028993
222,95.99993896,73.00028993
223,95.99993896,73.00028993
224,95.99993896,74.00016785
225,95.99993896,75.00004578
226,95.99993896,75.00004578
227,95.99993896,75.00004578
228,95.99993896,75.00004578
229,95.99993896,75.00004578
230,95.99993896,74.00016785
231,95.99993896,74.00016785
232,95.99993896,74.00016785
233,95.99993896,74.00016785
234,95.99993896,74.00016785
235,95.99993896,74.00016785
236,95.99993896,74.00016785
237,95.99993896,75.00004578
238,95.99993896,74.00016785
239,95.99993896,74.00016785
240,95.99993896,73.00028993
241,95.99993896,73.00028993
242,95.99993896,73.00028993
243,95.99993896,73.00028993
244,95.99993896,73.00028993
245,95.99993896,74.00016785
246,95.99993896,74.00016785
247,95.99993896,74.00016785
248,95.99993896,74.00016785
249,95.99993896,75.00004578
250,95.99993896,74.00016785
251,95.99993896,75.00004578
252,95.99993896,75.00004578
253,95.99993896,75.00004578
254,95.00000000,76.00094607
255,95.00000000,75.00004578
256,95.00000000,74.00016785
257,95.00000000,73.00028993
258,95.99993896,73.00028993
259,95.99993896,73.00028993
260,95.00000000,73.00028993
261,95.00000000,73.00028993
262,95.00000000,73.00028993
263,95.00000000,73.00028993
264,95.00000000,74.00016785
265,95.00000000,74.00016785
266,95.00000000,74.00016785
267,95.00000000,74.00016785
268,95.00000000,75.00004578
269,95.00000000,81.00033570
270,95.00000000,81.00033570
271,95.00000000,83.00009156
272,95.99993896,82.00021363
273,96.99995422,78.00070193
274,95.99993896,76.00094607
275,95.99993896,75.00004578
276,95.99993896,75.00004578
277,95.99993896,75.00004578
278,95.99993896,76.00094607
279,95.99993896,77.00082400
280,95.99993896,78.00070193
281,95.99993896,78.00070193
282,95.99993896,76.00094607
283,95.99993896,75.00004578
284,95.99993896,74.00016785
285,95.99993896,73.00028993
286,95.99993896,72.00041200
287,95.99993896,72.00041200
288,95.99993896,72.00041200
289,95.99993896,72.00041200
290,95.99993896,72.00041200
291,95.99993896,72.00041200
292,95.99993896,72.00041200
293,95.99993896,72.00041200
294,95.99993896,72.00041200
295,95.99993896,72.00041200
296,95.99993896,72.00041200
297,95.99993896,73.00028993
298,95.99993896,72.00041200
299,95.99993896,73.00028993
300,95.99993896,72.00041200
301,95.99993896,82.00021363
302,95.99993896,88.00050356
303,95.99993896,88.00050356
304,95.99993896,88.00050356
305,95.99993896,88.00050356
306,95.99993896,88.00050356
307,95.99993896,91.00013733
308,95.99993896,91.00013733
309,95.99993896,91.00013733
310,95.99993896,90.00025941
311,95.99993896,90.00025941
312,95.99993896,90.00025941
313,95.99993896,90.00025941
314,95.99993896,91.00013733
315,95.99993896,92.00001526
316,95.99993896,92.00001526
317,95.99993896,93.00091556
318,95.99993896,93.00091556
319,96.99995422,95.00067141
320,95.99993896,93.00091556
321,95.99993896,90.00025941
322,95.99993896,85.00086978
323,95.99993896,81.00033570
324,95.99993896,78.00070193
325,95.99993896,75.00004578
326,95.99993896,75.00004578
327,95.99993896,76.00094607
328,95.00000000,78.00070193
329,95.00000000,78.00070193
330,95.00000000,82.00021363
331,95.00000000,82.00021363
332,95.00000000,84.00099185
333,95.00000000,84.00099185
334,95.00000000,84.00099185
335,94.00006104,85.00086978
336,94.00006104,85.00086978
337,94.00006104,86.00074770
338,94.00006104,86.00074770
339,94.00006104,88.00050356
340,94.00006104,88.00050356
341,94.00006104,88.00050356
342,94.00006104,87.00062563
343,94.00006104,87.00062563
344,94.00006104,87.00062563
345,94.00006104,87.00062563
346,94.00006104,87.00062563
347,94.00006104,89.00038148
348,94.00006104,91.00013733
349,94.00006104,90.00025941
350,94.00006104,89.00038148
351,94.00006104,90.00025941
352,94.00006104,90.00025941
353,94.00006104,91.00013733
354,94.00006104,91.00013733
355,94.00006104,91.00013733
356,94.00006104,91.00013733
357,94.00006104,90.00025941
358,94.00006104,89.00038148
359,94.00006104,88.00050356
360,94.00006104,88.00050356
361,94.00006104,88.00050356
362,94.00006104,88.00050356
363,94.00006104,88.00050356
364,94.00006104,88.00050356
365,94.00006104,87.00062563
366,94.00006104,86.00074770
367,94.00006104,86.00074770
368,94.00006104,86.00074770
369,94.00006104,86.00074770
370,94.00006104,86.00074770
371,94.00006104,87.00062563
372,94.00006104,87.00062563
373,95.00000000,88.00050356
374,95.00000000,88.00050356
375,95.00000000,89.00038148
376,95.00000000,90.00025941
377,95.99993896,90.00025941
378,95.00000000,91.00013733
379,95.00000000,91.00013733
380,95.99993896,94.00079348
381,95.99993896,97.99928282
382,95.99993896,99.99903867
383,95.99993896,100.99993896
384,95.99993896,100.99993896
385,95.99993896,99.99903867
386,95.00000000,97.00042726
387,95.00000000,95.00067141
388,95.00000000,94.00079348
389,95.00000000,94.00079348
390,95.00000000,92.00001526
391,95.00000000,91.00013733
392,95.99993896,90.00025941
393,95.99993896,89.00038148
394,95.99993896,89.00038148
395,95.99993896,89.00038148
396,95.99993896,95.00067141
397,95.00000000,96.00054933
398,95.00000000,96.00054933
399,95.00000000,96.00054933
400,95.00000000,96.00054933
401,95.00000000,96.00054933
402,95.99993896,96.00054933
403,95.00000000,96.00054933
404,95.00000000,97.00042726
405,95.00000000,97.00042726
406,95.00000000,97.00042726
407,95.00000000,97.00042726
408,95.00000000,97.00042726
409,95.00000000,97.99928282
410,95.00000000,97.99928282
411,95.00000000,97.99928282
412,95.00000000,97.99928282
413,95.00000000,97.99928282
414,95.00000000,98.99916074
415,95.00000000,100.99993896
416,95.00000000,100.99993896
417,95.00000000,102.99969481
418,95.00000000,102.99969481
419,95.00000000,101.99981689
420,95.00000000,100.99993896
421,95.99993896,99.99903867
422,95.00000000,97.99928282
423,95.00000000,98.99916074
424,95.99993896,99.99903867
425,95.99993896,99.99903867
426,95.99993896,99.99903867
427,95.99993896,99.99903867
428,95.99993896,99.99903867
429,95.00000000,97.99928282
430,95.00000000,96.00054933
431,95.00000000,96.00054933
432,95.00000000,96.00054933
433,95.99993896,96.00054933
434,95.99993896,96.00054933
435,95.99993896,96.00054933
436,95.99993896,96.00054933
437,95.99993896,96.00054933
438,95.99993896,96.00054933
439,95.99993896,96.00054933
440,95.99993896,91.00013733
441,95.99993896,91.00013733
442,95.00000000,90.00025941
443,95.00000000,93.00091556
444,95.99993896,90.00025941
445,95.99993896,90.00025941
446,95.99993896,90.00025941
447,95.00000000,90.00025941
448,95.00000000,90.00025941
449,95.00000000,90.00025941
450,95.00000000,90.00025941
451,95.00000000,89.00038148
452,95.00000000,89.00038148
453,95.00000000,89.00038148
454,95.00000000,89.00038148
455,95.00000000,89.00038148
456,95.00000000,89.00038148
457,95.00000000,90.00025941
458,95.00000000,91.00013733
459,95.00000000,91.00013733
460,95.00000000,92.00001526
461,95.00000000,92.00001526
462,95.00000000,91.00013733
463,95.00000000,91.00013733
464,95.00000000,91.00013733
465,95.00000000,90.00025941
466,95.00000000,90.00025941
467,95.00000000,91.00013733
468,95.00000000,91.00013733
469,95.00000000,91.00013733
470,95.00000000,91.00013733
471,95.00000000,91.00013733
472,95.00000000,91.00013733
473,95.00000000,92.00001526
474,95.00000000,93.00091556
475,95.00000000,93.00091556
476,95.00000000,93.00091556
477,95.00000000,94.00079348
478,95.00000000,94.00079348
479,95.00000000,96.00054933
480,95.00000000,96.00054933
481,95.00000000,97.00042726
482,95.00000000,97.00042726
483,95.00000000,97.00042726
484,95.00000000,97.99928282
485,95.00000000,97.99928282
486,95.00000000,97.99928282
487,95.00000000,97.99928282
488,95.00000000,97.00042726
489,95.00000000,97.99928282
490,95.00000000,97.99928282
491,95.00000000,97.99928282
492,95.00000000,97.99928282
493,95.00000000,97.99928282
494,95.00000000,97.99928282
495,95.00000000,97.99928282
496,95.00000000,97.99928282
497,95.00000000,97.00042726
498,95.00000000,97.00042726
499,95.00000000,97.00042726
500,95.00000000,97.00042726
501,95.00000000,97.00042726
502,95.00000000,97.99928282
503,95.00000000,97.99928282
504,95.00000000,97.99928282
505,95.00000000,98.99916074
506,95.00000000,99.99903867
507,95.00000000,101.99981689
508,95.00000000,101.99981689
509,95.00000000,117.99990844
510,95.99993896,117.99990844
511,95.99993896,128.99958800
512,95.99993896,128.99958800
513,95.99993896,128.99958800
514,95.99993896,130.99934385
515,95.00000000,123.99917600
516,95.00000000,115.99913022
517,95.00000000,115.99913022
518,95.00000000,115.99913022
519,95.00000000,115.99913022
520,95.00000000,115.99913022
521,95.00000000,115.99913022
522,95.00000000,112.99949644
523,95.00000000,112.99949644
524,95.00000000,112.99949644
525,95.00000000,112.99949644
526,95.00000000,112.99949644
527,95.00000000,112.99949644
528,95.00000000,112.99949644
529,95.00000000,112.99949644
530,95.00000000,112.99949644
531,95.00000000,112.99949644
532,95.00000000,112.99949644
533,95.00000000,112.99949644
534,95.00000000,111.99961852
535,95.00000000,111.99961852
536,95.00000000,111.99961852
537,95.00000000,111.99961852
538,95.00000000,111.99961852
539,95.00000000,110.99974059
540,95.00000000,110.99974059
541,95.00000000,110.99974059
542,95.00000000,109.99986267
543,95.00000000,108.99998474
544,95.99993896,109.99986267
545,95.99993896,109.99986267
546,95.99993896,109.99986267
547,95.99993896,109.99986267
548,95.99993896,109.99986267
549,95.99993896,109.99986267
550,95.99993896,109.99986267
551,95.99993896,109.99986267
552,95.99993896,109.99986267
553,95.99993896,109.99986267
554,95.99993896,109.99986267
555,95.99993896,109.99986267
556,95.99993896,109.99986267
557,95.99993896,109.99986267
558,95.99993896,109.99986267
559,95.99993896,109.99986267
560,95.99993896,110.99974059
561,95.99993896,111.99961852
562,95.99993896,113.99937437
563,95.00000000,113.99937437
564,95.99993896,114.99925230
565,95.99993896,115.99913022
566,95.99993896,114.99925230
567,95.99993896,114.99925230
568,95.00000000,115.99913022
569,95.00000000,115.99913022
570,95.00000000,115.99913022
571,95.00000000,115.99913022
572,95.00000000,115.99913022
573,95.00000000,115.99913022
574,95.99993896,115.99913022
575,95.99993896,115.99913022
576,95.99993896,115.99913022
577,95.99993896,115.99913022
578,95.99993896,115.99913022
579,95.99993896,117.99990844
580,95.99993896,118.99978637
581,95.99993896,118.99978637
582,95.99993896,119.99966430
583,95.99993896,119.99966430
584,95.99993896,119.99966430
585,95.00000000,119.99966430
586,95.00000000,119.99966430
587,95.00000000,119.99966430
588,95.00000000,119.99966430
589,95.00000000,119.99966430
590,95.99993896,118.99978637
591,95.99993896,119.99966430
592,95.99993896,119.99966430
593,95.99993896,119.99966430
594,95.99993896,120.99954222
595,95.99993896,118.99978637
596,96.99995422,119.99966430
597,95.99993896,119.99966430
598,95.99993896,119.99966430
599,95.99993896,118.99978637
600,95.99993896,118.99978637
601,95.00000000,118.99978637
602,95.00000000,118.99978637
603,95.00000000,118.99978637
604,95.00000000,118.99978637
605,95.00000000,118.99978637
606,95.00000000,118.99978637
607,95.00000000,118.99978637
608,95.00000000,118.99978637
609,95.00000000,118.99978637
610,95.00000000,118.99978637
611,95.00000000,117.99990844
612,95.00000000,114.99925230
613,95.00000000,114.99925230
614,95.00000000,113.99937437
615,95.00000000,107.99908444
616,95.00000000,107.99908444
617,95.00000000,107.99908444
618,95.00000000,107.99908444
619,95.00000000,107.99908444
620,95.00000000,107.99908444
621,95.00000000,107.99908444
622,95.00000000,107.99908444
623,95.00000000,107.99908444
624,95.00000000,107.99908444
625,95.00000000,107.99908444
626,95.00000000,107.99908444
627,95.00000000,107.99908444
628,95.00000000,107.99908444
629,95.99993896,105.99932859
630,95.99993896,102.99969481
631,96.99995422,99.99903867
632,95.99993896,95.00067141
633,95.99993896,94.00079348
634,95.99993896,92.00001526
635,95.99993896,91.00013733
636,95.99993896,91.00013733
637,95.99993896,91.00013733
638,95.99993896,92.00001526
639,95.00000000,92.00001526
640,95.00000000,92.00001526
641,95.00000000,91.00013733
642,95.99993896,88.00050356
643,95.99993896,88.00050356
644,95.99993896,87.00062563
645,95.99993896,87.00062563
646,95.99993896,86.00074770
647,95.99993896,86.00074770
648,95.99993896,86.00074770
649,95.99993896,85.00086978
650,95.99993896,85.00086978
651,95.00000000,85.00086978
652,95.99993896,87.00062563
653,95.00000000,88.00050356
654,95.00000000,87.00062563
655,95.00000000,85.00086978
656,95.00000000,82.00021363
657,95.99993896,81.00033570
658,95.99993896,79.00057985
659,95.99993896,78.00070193
660,95.99993896,78.00070193
661,95.99993896,78.00070193
662,95.99993896,79.00057985
663,95.99993896,79.00057985
664,95.99993896,79.00057985
665,95.99993896,78.00070193
666,95.99993896,78.00070193
667,95.99993896,78.00070193
668,95.99993896,79.00057985
669,95.99993896,79.00057985
670,95.99993896,80.00045778
671,95.99993896,80.00045778
672,95.99993896,81.00033570
673,95.99993896,81.00033570
674,95.00000000,80.00045778
675,95.00000000,79.00057985
676,95.00000000,77.00082400
677,95.00000000,77.00082400
678,95.00000000,76.00094607
679,95.00000000,76.00094607
680,95.00000000,77.00082400
681,95.00000000,77.00082400
682,95.00000000,77.00082400
683,95.00000000,78.00070193
684,95.00000000,77.00082400
685,95.00000000,77.00082400
686,95.00000000,77.00082400
687,95.00000000,77.00082400
688,95.00000000,78.00070193
689,95.00000000,78.00070193
690,95.00000000,78.00070193
691,95.00000000,78.00070193
692,95.00000000,78.00070193
693,95.00000000,78.00070193
694,95.00000000,78.00070193
695,95.00000000,77.00082400
696,95.00000000,77.00082400
697,95.00000000,76.00094607
698,95.00000000,75.00004578
699,95.00000000,74.00016785
700,95.00000000,74.00016785
701,95.00000000,74.00016785
702,95.00000000,74.00016785
703,95.00000000,74.00016785
704,95.00000000,74.00016785
705,95.00000000,74.00016785
706,95.00000000,75.00004578
707,95.00000000,75.00004578
708,95.00000000,75.00004578
709,95.00000000,76.00094607
710,95.00000000,76.00094607
711,95.00000000,75.00004578
712,95.00000000,75.00004578
713,95.00000000,75.00004578
714,95.00000000,75.00004578
715,95.00000000,74.00016785
716,95.00000000,74.00016785
717,95.00000000,74.00016785
718,95.00000000,75.00004578
719,95.00000000,75.00004578
720,95.00000000,75.00004578
721,95.00000000,75.00004578
722,95.00000000,75.00004578
723,95.00000000,75.00004578
724,95.00000000,74.00016785
725,95.00000000,74.00016785
726,95.00000000,74.00016785
727,95.00000000,74.00016785
728,95.00000000,74.00016785
729,95.00000000,74.00016785
730,95.00000000,74.00016785
731,95.00000000,75.00004578
732,95.00000000,75.00004578
733,95.00000000,74.00016785
734,95.00000000,74.00016785
735,95.00000000,74.00016785
736,95.00000000,75.00004578
737,95.00000000,83.00009156
738,95.00000000,83.00009156
739,95.00000000,86.00074770
740,95.00000000,83.00009156
741,95.00000000,81.00033570
742,95.00000000,79.00057985
743,95.99993896,78.00070193
744,95.00000000,77.00082400
745,95.00000000,77.00082400
746,95.00000000,78.00070193
747,95.00000000,79.00057985
748,95.00000000,79.00057985
749,95.00000000,80.00045778
750,95.00000000,80.00045778
751,95.00000000,79.00057985
752,95.00000000,79.00057985
753,95.00000000,78.00070193
754,95.00000000,78.00070193
755,95.00000000,79.00057985
756,95.00000000,80.00045778
757,95.00000000,80.00045778
758,95.00000000,81.00033570
759,95.00000000,81.00033570
760,95.00000000,81.00033570
761,95.00000000,81.00033570
762,95.99993896,80.00045778
763,95.99993896,80.00045778
764,95.99993896,80.00045778
765,95.99993896,81.00033570
766,95.99993896,81.00033570
767,95.99993896,82.00021363
768,95.99993896,82.00021363
769,95.00000000,83.00009156
770,95.00000000,84.00099185
771,95.99993896,84.00099185
772,95.99993896,84.00099185
773,95.99993896,84.00099185
774,95.99993896,84.00099185
775,95.00000000,84.00099185
776,95.00000000,86.00074770
777,95.00000000,85.00086978
778,95.00000000,86.00074770
779,95.00000000,86.00074770
780,95.00000000,84.00099185
781,95.00000000,83.00009156
782,95.00000000,82.00021363
783,95.00000000,82.00021363
784,95.00000000,83.00009156
785,95.00000000,82.00021363
786,95.00000000,83.00009156
787,95.99993896,83.00009156
788,95.99993896,84.00099185
789,95.99993896,86.00074770
790,95.99993896,85.00086978
791,95.99993896,87.00062563
792,95.99993896,86.00074770
793,95.99993896,85.00086978
794,95.99993896,85.00086978
795,95.99993896,84.00099185
796,95.99993896,83.00009156
797,95.99993896,84.00099185
798,95.99993896,83.00009156
799,95.99993896,83.00009156
800,95.99993896,82.00021363
801,95.99993896,82.00021363
802,95.99993896,81.00033570
803,95.99993896,80.00045778
804,95.99993896,80.00045778
805,95.99993896,81.00033570
806,95.99993896,81.00033570
807,95.99993896,81.00033570
808,95.99993896,82.00021363
809,95.99993896,81.00033570
810,95.99993896,80.00045778
811,95.99993896,79.00057985
812,95.00000000,79.00057985
813,95.00000000,78.00070193
814,95.00000000,78.00070193
815,95.00000000,78.00070193
816,95.00000000,79.00057985
817,95.00000000,80.00045778
818,95.00000000,82.00021363
819,95.00000000,82.00021363
820,95.00000000,82.00021363
821,95.00000000,82.00021363
822,95.00000000,82.00021363
823,95.00000000,82.00021363
824,95.99993896,82.00021363
825,95.99993896,84.00099185
826,95.99993896,84.00099185
827,95.99993896,83.00009156
828,95.99993896,81.00033570
829,95.99993896,78.00070193
830,95.99993896,76.00094607
831,95.00000000,74.00016785
832,95.00000000,74.00016785
833,95.00000000,78.00070193
834,95.00000000,78.00070193
835,95.99993896,83.00009156
836,95.99993896,83.00009156
837,95.99993896,88.00050356
838,95.99993896,88.00050356
839,95.99993896,88.00050356
840,95.99993896,89.00038148
841,95.99993896,83.00009156
842,95.99993896,81.00033570
843,95.99993896,80.00045778
844,95.99993896,78.00070193
845,95.99993896,77.00082400
846,95.99993896,79.00057985
847,95.99993896,81.00033570
848,95.99993896,82.00021363
849,95.99993896,82.00021363
850,95.99993896,80.00045778
851,95.99993896,80.00045778
852,95.99993896,79.00057985
853,95.99993896,78.00070193
854,95.99993896,78.00070193
855,95.99993896,82.00021363
856,95.99993896,82.00021363
857,95.99993896,82.00021363
858,95.99993896,82.00021363
859,95.99993896,80.00045778
860,95.99993896,79.00057985
861,95.99993896,78.00070193
862,95.99993896,78.00070193
863,95.99993896,78.00070193
864,95.99993896,78.00070193
865,95.99993896,78.00070193
866,95.99993896,79.00057985
867,95.00000000,80.00045778
868,95.00000000,80.00045778
869,95.00000000,80.00045778
870,95.00000000,80.00045778
871,95.00000000,79.00057985
872,95.00000000,79.00057985
873,95.00000000,80.00045778
874,95.00000000,80.00045778
875,95.00000000,80.00045778
876,95.00000000,80.00045778
877,95.99993896,79.00057985
878,95.99993896,79.00057985
879,95.00000000,79.00057985
880,95.99993896,79.00057985
881,95.99993896,78.00070193
882,95.99993896,77.00082400
883,95.99993896,77.00082400
884,95.99993896,76.00094607
885,95.99993896,77.00082400
886,95.99993896,78.00070193
887,95.99993896,79.00057985
888,95.99993896,79.00057985
889,95.99993896,79.00057985
890,95.99993896,78.00070193
891,95.99993896,77.00082400
892,95.99993896,75.00004578
893,95.99993896,74.00016785
894,95.99993896,74.00016785
895,95.00000000,74.00016785
896,95.00000000,74.00016785
897,95.00000000,75.00004578
898,95.00000000,76.00094607
899,95.00000000,78.00070193
900,95.00000000,78.00070193
901,95.00000000,79.00057985
902,95.00000000,79.00057985
903,95.00000000,79.00057985
904,95.00000000,78.00070193
905,95.00000000,77.00082400
906,95.00000000,76.00094607
907,95.00000000,76.00094607
908,95.00000000,78.00070193
909,95.00000000,78.00070193
910,95.00000000,81.00033570
911,95.00000000,83.00009156
912,95.00000000,84.00099185
913,95.00000000,86.00074770
914,95.00000000,86.00074770
915,95.00000000,86.00074770
916,95.00000000,88.00050356
917,95.00000000,87.00062563
918,95.00000000,86.00074770
919,95.00000000,85.00086978
920,95.00000000,83.00009156
921,95.00000000,81.00033570
922,95.00000000,80.00045778
923,95.00000000,79.00057985
924,95.00000000,79.00057985
925,95.00000000,79.00057985
926,95.00000000,80.00045778
927,94.00006104,80.00045778
928,94.00006104,79.00057985
929,94.00006104,79.00057985
930,95.00000000,89.00038148
931,95.00000000,89.00038148
932,95.00000000,89.00038148
933,95.00000000,89.00038148
934,95.00000000,89.00038148
935,95.00000000,89.00038148
936,95.00000000,89.00038148
937,95.00000000,89.00038148
938,95.00000000,89.00038148
939,95.00000000,89.00038148
940,95.00000000,89.00038148
941,95.00000000,95.00067141
942,95.00000000,100.99993896
943,95.00000000,100.99993896
944,95.99993896,103.99957274
945,95.99993896,103.99957274
946,95.00000000,101.99981689
947,95.00000000,97.99928282
948,95.00000000,94.00079348
949,95.00000000,91.00013733
950,95.00000000,88.00050356
951,95.00000000,87.00062563
952,95.99993896,87.00062563
953,95.99993896,87.00062563
954,96.99995422,87.00062563
955,96.99995422,88.00050356
956,96.99995422,91.00013733
957,96.99995422,91.00013733
958,96.99995422,91.00013733
959,96.99995422,88.00050356
960,96.99995422,87.00062563
961,96.99995422,84.00099185
962,96.99995422,84.00099185
963,96.99995422,84.00099185
964,96.99995422,84.00099185
965,95.99993896,85.00086978
966,95.99993896,85.00086978
967,95.99993896,87.00062563
968,96.99995422,89.00038148
969,96.99995422,88.00050356
970,96.99995422,88.00050356
971,96.99995422,88.00050356
972,96.99995422,88.00050356
973,97.99996948,87.00062563
974,97.99996948,86.00074770
975,97.99996948,86.00074770
976,96.99995422,85.00086978
977,96.99995422,86.00074770
978,96.99995422,86.00074770
979,96.99995422,92.00001526
980,96.99995422,94.00079348
981,96.99995422,92.00001526
982,96.99995422,89.00038148
983,96.99995422,87.00062563
984,96.99995422,85.00086978
985,95.99993896,85.00086978
986,95.99993896,85.00086978
987,95.99993896,84.00099185
988,95.99993896,82.00021363
989,95.99993896,82.00021363
990,95.99993896,81.00033570
991,96.99995422,81.00033570
992,96.99995422,83.00009156
993,96.99995422,86.00074770
994,96.99995422,86.00074770
995,96.99995422,85.00086978
996,96.99995422,84.00099185
997,95.99993896,83.00009156
998,95.99993896,85.00086978
999,95.99993896,85.00086978
1000,95.99993896,91.00013733
1001,95.99993896,95.00067141
1002,96.99995422,95.00067141
1003,96.99995422,97.99928282
1004,96.99995422,93.00091556
1005,96.99995422,91.00013733
1006,95.99993896,86.00074770
1007,95.99993896,86.00074770
1008,95.99993896,85.00086978
1009,95.99993896,86.00074770
1010,96.99995422,88.00050356
1011,96.99995422,90.00025941
1012,96.99995422,91.00013733
1013,96.99995422,94.00079348
1014,96.99995422,95.00067141
1015,96.99995422,92.00001526
1016,96.99995422,87.00062563
1017,96.99995422,84.00099185
1018,96.99995422,81.00033570
1019,96.99995422,80.00045778
1020,96.99995422,79.00057985
1021,96.99995422,82.00021363
1022,96.99995422,87.00062563
1023,96.99995422,88.00050356
1024,96.99995422,90.00025941
1025,96.99995422,89.00038148
1026,96.99995422,88.00050356
1027,96.99995422,85.00086978
1028,95.99993896,84.00099185
1029,95.99993896,83.00009156
1030,95.99993896,81.00033570
1031,95.99993896,80.00045778
1032,95.99993896,78.00070193
1033,95.99993896,77.00082400
1034,95.99993896,76.00094607
1035,95.99993896,77.00082400
1036,95.99993896,80.00045778
1037,95.99993896,80.00045778
1038,96.99995422,85.00086978
1039,96.99995422,85.00086978
1040,96.99995422,88.00050356
1041,96.99995422,88.00050356
1042,96.99995422,87.00062563
1043,96.99995422,86.00074770
1044,97.99996948,87.00062563
1045,96.99995422,87.00062563
1046,96.99995422,87.00062563
1047,95.99993896,88.00050356
1048,96.99995422,89.00038148
1049,95.99993896,87.00062563
1050,95.99993896,85.00086978
1051,95.99993896,85.00086978
1052,95.99993896,84.00099185
1053,95.99993896,89.00038148
1054,96.99995422,89.00038148
1055,96.99995422,92.00001526
1056,96.99995422,90.00025941
1057,96.99995422,89.00038148
1058,96.99995422,87.00062563
1059,97.99996948,87.00062563
1060,97.99996948,88.00050356
1061,96.99995422,92.00001526
1062,96.99995422,92.00001526
1063,96.99995422,93.00091556
1064,96.99995422,93.00091556
1065,96.99995422,92.00001526
1066,96.99995422,93.00091556
1067,96.99995422,93.00091556
1068,96.99995422,93.00091556
1069,96.99995422,93.00091556
1070,96.99995422,93.00091556
1071,96.99995422,97.00042726
1072,96.99995422,97.00042726
1073,96.99995422,97.99928282
1074,96.99995422,93.00091556
1075,96.99995422,90.00025941
1076,96.99995422,88.00050356
1077,96.99995422,86.00074770
1078,96.99995422,85.00086978
1079,96.99995422,85.00086978
1080,96.99995422,90.00025941
1081,96.99995422,90.00025941
1082,96.99995422,93.00091556
1083,96.99995422,94.00079348
1084,96.99995422,87.00062563
1085,96.99995422,83.00009156
1086,96.99995422,80.00045778
1087,96.99995422,77.00082400
1088,96.99995422,77.00082400
1089,96.99995422,77.00082400
1090,96.99995422,77.00082400
1091,96.99995422,80.00045778
1092,96.99995422,82.00021363
1093,96.99995422,82.00021363
1094,96.99995422,83.00009156
1095,96.99995422,81.00033570
1096,96.99995422,79.00057985
1097,96.99995422,78.00070193
1098,96.99995422,78.00070193
1099,96.99995422,77.00082400
1100,96.99995422,77.00082400
1101,96.99995422,80.00045778
1102,96.99995422,81.00033570
1103,96.99995422,81.00033570
1104,96.99995422,82.00021363
1105,96.99995422,81.00033570
1106,96.99995422,81.00033570
1107,96.99995422,80.00045778
1108,96.99995422,79.00057985
1109,96.99995422,79.00057985
1110,96.99995422,78.00070193
1111,96.99995422,78.00070193
1112,95.99993896,79.00057985
1113,95.99993896,80.00045778
1114,95.99993896,82.00021363
1115,95.99993896,82.00021363
1116,95.99993896,82.00021363
1117,95.99993896,82.00021363
1118,95.99993896,84.00099185
1119,95.99993896,84.00099185
1120,95.99993896,83.00009156
1121,96.99995422,84.00099185
1122,96.99995422,83.00009156
1123,96.99995422,85.00086978
1124,96.99995422,87.00062563
1125,96.99995422,88.00050356
1126,96.99995422,87.00062563
1127,96.99995422,86.00074770
1128,96.99995422,84.00099185
1129,96.99995422,84.00099185
1130,96.99995422,84.00099185
1131,96.99995422,83.00009156
1132,96.99995422,86.00074770
1133,96.99995422,86.00074770
1134,96.99995422,89.00038148
1135,96.99995422,90.00025941
1136,96.99995422,83.00009156
1137,96.99995422,80.00045778
1138,96.99995422,77.00082400
1139,96.99995422,76.00094607
1140,96.99995422,77.00082400
1141,96.99995422,78.00070193
1142,96.99995422,79.00057985
1143,96.99995422,79.00057985
1144,96.99995422,78.00070193
1145,96.99995422,78.00070193
1146,96.99995422,76.00094607
1147,96.99995422,76.00094607
1148,96.99995422,75.00004578
1149,96.99995422,75.00004578
1150,96.99995422,75.00004578
1151,95.99993896,75.00004578
1152,95.99993896,75.00004578
1153,95.99993896,75.00004578
1154,95.99993896,75.00004578
1155,95.99993896,74.00016785
1156,96.99995422,74.00016785
1157,96.99995422,76.00094607
1158,96.99995422,76.00094607
1159,96.99995422,77.00082400
1160,96.99995422,78.00070193
1161,96.99995422,77.00082400
1162,96.99995422,76.00094607
1163,96.99995422,75.00004578
1164,96.99995422,74.00016785
1165,96.99995422,73.00028993
1166,95.99993896,73.00028993
1167,95.99993896,73.00028993
1168,95.99993896,73.00028993
1169,95.99993896,74.00016785
1170,95.99993896,75.00004578
1171,95.00000000,77.00082400
1172,95.00000000,79.00057985
1173,95.00000000,79.00057985
1174,95.00000000,78.00070193
1175,95.00000000,77.00082400
1176,95.00000000,76.00094607
1177,95.00000000,75.00004578
1178,95.00000000,75.00004578
1179,95.99993896,77.00082400
1180,95.99993896,77.00082400
1181,95.99993896,78.00070193
1182,95.99993896,79.00057985
1183,95.99993896,80.00045778
1184,95.99993896,81.00033570
1185,95.99993896,81.00033570
1186,95.99993896,81.00033570
1187,95.99993896,82.00021363
1188,95.99993896,81.00033570
1189,95.99993896,81.00033570
1190,95.99993896,80.00045778
1191,95.99993896,79.00057985
1192,95.99993896,78.00070193
1193,95.99993896,76.00094607
1194,95.99993896,75.00004578
1195,95.99993896,76.00094607
1196,95.99993896,76.00094607
1197,95.99993896,76.00094607
1198,95.99993896,79.00057985
1199,95.99993896,79.00057985
1200,95.99993896,83.00009156
1201,95.99993896,83.00009156
1202,95.99993896,87.00062563
1203,95.99993896,87.00062563
1204,95.99993896,86.00074770
1205,95.99993896,85.00086978
1206,95.99993896,82.00021363
1207,95.99993896,79.00057985
1208,95.99993896,78.00070193
1209,95.99993896,77.00082400
1210,95.99993896,76.00094607
1211,95.99993896,76.00094607
1212,95.99993896,77.00082400
1213,96.99995422,77.00082400
1214,96.99995422,77.00082400
1215,96.99995422,77.00082400
1216,96.99995422,77.00082400
1217,96.99995422,76.00094607
1218,96.99995422,77.00082400
1219,96.99995422,78.00070193
1220,96.99995422,79.00057985
1221,96.99995422,79.00057985
1222,96.99995422,79.00057985
1223,96.99995422,79.00057985
1224,96.99995422,79.00057985
1225,96.99995422,83.00009156
1226,96.99995422,84.00099185
1227,95.99993896,86.00074770
1228,95.99993896,82.00021363
1229,95.99993896,80.00045778
1230,95.99993896,78.00070193
1231,95.99993896,77.00082400
1232,95.99993896,77.00082400
1233,95.99993896,79.00057985
1234,95.99993896,80.00045778
1235,95.99993896,80.00045778
1236,95.99993896,81.00033570
1237,95.99993896,82.00021363
1238,95.99993896,84.00099185
1239,95.99993896,85.00086978
1240,95.99993896,82.00021363
1241,95.99993896,82.00021363
1242,96.99995422,80.00045778
1243,95.99993896,80.00045778
1244,95.99993896,83.00009156
1245,95.99993896,83.00009156
1246,95.99993896,85.00086978
1247,95.99993896,84.00099185
1248,95.99993896,84.00099185
1249,95.99993896,85.00086978
1250,95.99993896,85.00086978
1251,95.99993896,86.00074770
1252,95.99993896,86.00074770
1253,95.99993896,87.00062563
1254,95.99993896,87.00062563
1255,95.99993896,90.00025941
1256,95.99993896,92.00001526
1257,95.99993896,92.00001526
1258,95.99993896,92.00001526
1259,95.99993896,92.00001526
1260,95.99993896,91.00013733
1261,95.99993896,88.00050356
1262,95.99993896,88.00050356
1263,95.99993896,87.00062563
1264,95.99993896,84.00099185
1265,95.00000000,80.00045778
1266,95.00000000,78.00070193
1267,95.00000000,77.00082400
1268,95.00000000,77.00082400
1269,95.00000000,76.00094607
1270,95.00000000,76.00094607
1271,95.00000000,76.00094607
1272,95.99993896,78.00070193
1273,95.99993896,80.00045778
1274,95.00000000,83.00009156
1275,95.00000000,83.00009156
1276,95.00000000,81.00033570
1277,95.00000000,78.00070193
1278,95.00000000,76.00094607
1279,95.99993896,75.00004578
1280,95.99993896,74.00016785
1281,95.99993896,74.00016785
1282,95.99993896,75.00004578
1283,95.99993896,75.00004578
1284,95.99993896,75.00004578
1285,95.99993896,78.00070193
1286,95.00000000,79.00057985
1287,95.00000000,79.00057985
1288,95.99993896,79.00057985
1289,95.99993896,79.00057985
1290,95.99993896,78.00070193
1291,95.99993896,78.00070193
1292,95.99993896,78.00070193
1293,95.99993896,78.00070193
1294,95.99993896,78.00070193
1295,95.99993896,78.00070193
1296,95.99993896,82.00021363
1297,95.99993896,82.00021363
1298,95.99993896,84.00099185
1299,95.00000000,82.00021363
1300,95.00000000,79.00057985
1301,95.00000000,78.00070193
1302,95.00000000,76.00094607
1303,95.00000000,76.00094607
1304,95.00000000,76.00094607
1305,95.00000000,79.00057985
1306,95.00000000,86.00074770
1307,95.00000000,87.00062563
1308,95.00000000,88.00050356
1309,95.00000000,87.00062563
1310,95.00000000,81.00033570
1311,95.00000000,79.00057985
1312,95.99993896,77.00082400
1313,95.99993896,76.00094607
1314,95.99993896,76.00094607
1315,95.99993896,77.00082400
1316,95.99993896,79.00057985
1317,95.99993896,79.00057985
1318,95.99993896,79.00057985
1319,95.99993896,79.00057985
1320,95.99993896,79.00057985
1321,95.99993896,79.00057985
1322,95.99993896,79.00057985
1323,95.99993896,81.00033570
1324,95.99993896,82.00021363
1325,95.99993896,82.00021363
1326,95.99993896,81.00033570
1327,95.99993896,83.00009156
1328,95.99993896,82.00021363
1329,95.99993896,79.00057985
1330,95.99993896,78.00070193
1331,95.99993896,78.00070193
1332,95.99993896,77.00082400
1333,95.99993896,77.00082400
1334,95.99993896,77.00082400
1335,95.99993896,77.00082400
1336,96.99995422,77.00082400
1337,96.99995422,77.00082400
1338,95.99993896,77.00082400
1339,95.99993896,77.00082400
1340,95.99993896,77.00082400
1341,95.99993896,77.00082400
1342,95.99993896,77.00082400
1343,95.99993896,77.00082400
1344,95.00000000,77.00082400
1345,95.00000000,77.00082400
1346,95.00000000,77.00082400
1347,95.00000000,77.00082400
1348,95.00000000,77.00082400
1349,95.00000000,76.00094607
1350,95.00000000,76.00094607
1351,95.00000000,76.00094607
1352,95.00000000,76.00094607
1353,95.00000000,75.00004578
1354,95.00000000,75.00004578
1355,95.00000000,74.00016785
1356,95.00000000,74.00016785
1357,95.00000000,76.00094607
1358,94.00006104,78.00070193
1359,94.00006104,79.00057985
1360,94.00006104,80.00045778
1361,94.00006104,79.00057985
1362,94.00006104,78.00070193
1363,94.00006104,78.00070193
1364,94.00006104,77.00082400
1365,94.00006104,76.00094607
1366,94.00006104,76.00094607
1367,94.00006104,76.00094607
1368,94.00006104,76.00094607
1369,94.00006104,76.00094607
1370,95.00000000,77.00082400
1371,95.00000000,77.00082400
1372,94.00006104,77.00082400
1373,94.00006104,79.00057985
1374,94.00006104,81.00033570
1375,94.00006104,84.00099185
1376,94.00006104,84.00099185
1377,94.00006104,86.00074770
1378,94.00006104,85.00086978
1379,94.00006104,82.00021363
1380,94.00006104,81.00033570
1381,94.00006104,80.00045778
1382,94.00006104,79.00057985
1383,94.00006104,78.00070193
1384,94.00006104,78.00070193
1385,94.00006104,78.00070193
1386,94.00006104,78.00070193
1387,94.00006104,75.00004578
1388,94.00006104,74.00016785
1389,94.00006104,72.00041200
1390,94.00006104,72.00041200
1391,95.00000000,71.00053407
1392,95.00000000,71.00053407
1393,95.00000000,72.00041200
1394,95.00000000,73.00028993
1395,95.00000000,74.00016785
1396,95.00000000,75.00004578
1397,95.00000000,75.00004578
1398,94.00006104,75.00004578
1399,95.00000000,75.00004578
1400,94.00006104,75.00004578
1401,94.00006104,75.00004578
1402,94.00006104,75.00004578
1403,94.00006104,75.00004578
1404,94.00006104,75.00004578
1405,94.00006104,76.00094607
1406,94.00006104,76.00094607
1407,94.00006104,76.00094607
1408,94.00006104,77.00082400
1409,94.00006104,78.00070193
1410,94.00006104,78.00070193
1411,94.00006104,79.00057985
1412,94.00006104,79.00057985
1413,94.00006104,78.00070193
1414,94.00006104,77.00082400
1415,94.00006104,77.00082400
1416,94.00006104,76.00094607
1417,94.00006104,76.00094607
1418,94.00006104,76.00094607
1419,94.00006104,76.00094607
1420,94.00006104,76.00094607
1421,94.00006104,76.00094607
1422,94.00006104,75.00004578
1423,94.00006104,75.00004578
1424,94.00006104,75.00004578
1425,94.00006104,74.00016785
1426,94.00006104,75.00004578
1427,94.00006104,75.00004578
1428,94.00006104,75.00004578
1429,93.00004578,75.00004578
1430,93.00004578,76.00094607
1431,93.00004578,77.00082400
1432,93.00004578,77.00082400
1433,93.00004578,76.00094607
1434,93.00004578,76.00094607
1435,93.00004578,76.00094607
1436,93.00004578,75.00004578
1437,93.00004578,75.00004578
1438,94.00006104,74.00016785
1439,94.00006104,74.00016785
1440,94.00006104,75.00004578
1441,94.00006104,75.00004578
1442,94.00006104,75.00004578
1443,94.00006104,76.00094607
1444,94.00006104,75.00004578
1445,94.00006104,76.00094607
1446,94.00006104,76.00094607
1447,94.00006104,76.00094607
1448,94.00006104,78.00070193
1449,94.00006104,82.00021363
1450,94.00006104,82.00021363
1451,94.00006104,85.00086978
1452,94.00006104,84.00099185
1453,94.00006104,82.00021363
1454,94.00006104,80.00045778
1455,94.00006104,79.00057985
1456,94.00006104,77.00082400
1457,94.00006104,77.00082400
1458,94.00006104,78.00070193
1459,94.00006104,79.00057985
1460,94.00006104,79.00057985
1461,94.00006104,78.00070193
1462,94.00006104,77.00082400
1463,94.00006104,76.00094607
1464,94.00006104,74.00016785
1465,94.00006104,74.00016785
1466,94.00006104,74.00016785
1467,94.00006104,74.00016785
1468,94.00006104,74.00016785
1469,94.00006104,74.00016785
1470,94.00006104,74.00016785
1471,94.00006104,74.00016785
1472,94.00006104,74.00016785
1473,94.00006104,74.00016785
1474,94.00006104,74.00016785
1475,94.00006104,74.00016785
1476,94.00006104,74.00016785
1477,94.00006104,75.00004578
1478,94.00006104,75.00004578
1479,94.00006104,76.00094607
1480,93.00004578,76.00094607
1481,93.00004578,75.00004578
1482,93.00004578,75.00004578
1483,93.00004578,75.00004578
1484,93.00004578,74.00016785
1485,94.00006104,74.00016785
1486,94.00006104,74.00016785
1487,94.00006104,74.00016785
1488,94.00006104,75.00004578
1489,94.00006104,75.00004578
1490,94.00006104,75.00004578
1491,94.00006104,75.00004578
1492,94.00006104,76.00094607
1493,94.00006104,76.00094607
1494,93.00004578,76.00094607
1495,93.00004578,75.00004578
1496,93.00004578,75.00004578
1497,94.00006104,74.00016785
1498,94.00006104,73.00028993
1499,94.00006104,73.00028993
1500,94.00006104,75.00004578
1501,94.00006104,75.00004578
1502,94.00006104,76.00094607
1503,94.00006104,77.00082400
1504,94.00006104,78.00070193
1505,94.00006104,78.00070193
1506,94.00006104,77.00082400
1507,94.00006104,76.00094607
1508,94.00006104,75.00004578
1509,94.00006104,74.00016785
1510,94.00006104,72.00041200
1511,94.00006104,72.00041200
1512,94.00006104,71.00053407
1513,94.00006104,71.00053407
1514,94.00006104,72.00041200
1515,94.00006104,72.00041200
1516,94.00006104,73.00028993
1517,94.00006104,74.00016785
1518,94.00006104,74.00016785
1519,94.00006104,75.00004578
1520,94.00006104,75.00004578
1521,94.00006104,75.00004578
1522,94.00006104,75.00004578
1523,94.00006104,73.00028993
1524,94.00006104,73.00028993
1525,94.00006104,72.00041200
1526,94.00006104,72.00041200
1527,94.00006104,72.00041200
1528,94.00006104,72.00041200
1529,94.00006104,72.00041200
1530,94.00006104,73.00028993
1531,94.00006104,73.00028993
1532,94.00006104,73.00028993
1533,94.00006104,73.00028993
1534,94.00006104,74.00016785
1535,94.00006104,74.00016785
1536,94.00006104,74.00016785
1537,94.00006104,74.00016785
1538,94.00006104,75.00004578
1539,93.00004578,75.00004578
1540,93.00004578,75.00004578
1541,93.00004578,74.00016785
1542,94.00006104,73.00028993
1543,94.00006104,73.00028993
1544,94.00006104,74.00016785
1545,94.00006104,74.00016785
1546,94.00006104,74.00016785
1547,94.00006104,74.00016785
1548,94.00006104,74.00016785
1549,94.00006104,73.00028993
1550,94.00006104,73.00028993
1551,94.00006104,72.00041200
1552,94.00006104,71.00053407
1553,94.00006104,71.00053407
1554,94.00006104,71.00053407
1555,94.00006104,71.00053407
1556,94.00006104,72.00041200
1557,94.00006104,72.00041200
1558,94.00006104,72.00041200
1559,94.00006104,72.00041200
1560,94.00006104,72.00041200
1561,94.00006104,73.00028993
1562,94.00006104,74.00016785
1563,94.00006104,75.00004578
1564,94.00006104,75.00004578
1565,94.00006104,76.00094607
1566,94.00006104,76.00094607
1567,94.00006104,76.00094607
1568,94.00006104,76.00094607
1569,94.00006104,78.00070193
1570,94.00006104,81.00033570
1571,94.00006104,85.00086978
1572,94.00006104,85.00086978
1573,94.00006104,87.00062563
1574,94.00006104,86.00074770
1575,94.00006104,85.00086978
1576,94.00006104,82.00021363
1577,95.00000000,79.00057985
1578,95.00000000,77.00082400
1579,94.00006104,75.00004578
1580,94.00006104,75.00004578
1581,94.00006104,74.00016785
1582,94.00006104,74.00016785
1583,94.00006104,74.00016785
1584,94.00006104,74.00016785
1585,94.00006104,74.00016785
1586,95.00000000,74.00016785
1587,95.00000000,74.00016785
1588,95.00000000,74.00016785
1589,94.00006104,74.00016785
1590,94.00006104,74.00016785
1591,94.00006104,74.00016785
1592,94.00006104,74.00016785
1593,94.00006104,73.00028993
1594,94.00006104,73.00028993
1595,94.00006104,74.00016785
1596,94.00006104,74.00016785
1597,94.00006104,74.00016785
1598,94.00006104,73.00028993
1599,94.00006104,73.00028993
1600,94.00006104,73.00028993
1601,94.00006104,73.00028993
1602,94.00006104,73.00028993
1603,94.00006104,73.00028993
1604,94.00006104,74.00016785
1605,94.00006104,74.00016785
1606,94.00006104,73.00028993
1607,94.00006104,73.00028993
1608,94.00006104,72.00041200
1609,94.00006104,72.00041200
1610,94.00006104,72.00041200
1611,94.00006104,71.00053407
1612,94.00006104,71.00053407
1613,94.00006104,71.00053407
1614,94.00006104,71.00053407
1615,94.00006104,71.00053407
1616,94.00006104,71.00053407
1617,94.00006104,71.00053407
1618,94.00006104,71.00053407
1619,94.00006104,71.00053407
1620,94.00006104,74.00016785
1621,94.00006104,74.00016785
1622,94.00006104,77.00082400
1623,94.00006104,80.00045778
1624,93.00004578,82.00021363
1625,94.00006104,85.00086978
1626,94.00006104,83.00009156
1627,94.00006104,81.00033570
1628,95.00000000,76.00094607
1629,95.00000000,77.00082400
1630,95.00000000,77.00082400
1631,95.00000000,78.00070193
1632,95.00000000,78.00070193
1633,95.00000000,78.00070193
1634,95.00000000,79.00057985
1635,95.00000000,79.00057985
1636,95.00000000,80.00045778
1637,95.00000000,80.00045778
1638,95.00000000,81.00033570
1639,95.99993896,82.00021363
1640,95.00000000,82.00021363
1641,95.00000000,82.00021363
1642,95.00000000,82.00021363
1643,95.00000000,82.00021363
1644,95.00000000,82.00021363
1645,95.00000000,82.00021363
1646,95.00000000,82.00021363
1647,95.00000000,84.00099185
1648,95.00000000,84.00099185
1649,95.00000000,84.00099185
1650,95.00000000,84.00099185
1651,95.00000000,84.00099185
1652,95.00000000,84.00099185
1653,95.00000000,84.00099185
1654,95.00000000,84.00099185
1655,95.00000000,84.00099185
1656,94.00006104,87.00062563
1657,94.00006104,87.00062563
1658,94.00006104,90.00025941
1659,94.00006104,90.00025941
1660,94.00006104,93.00091556
1661,95.00000000,97.00042726
1662,95.00000000,97.00042726
1663,95.00000000,98.99916074
1664,96.99995422,100.99993896
1665,96.99995422,97.00042726
1666,95.99993896,94.00079348
1667,95.99993896,89.00038148
1668,95.99993896,85.00086978
1669,95.00000000,81.00033570
1670,95.00000000,80.00045778
1671,95.00000000,80.00045778
1672,95.00000000,80.00045778
1673,95.00000000,80.00045778
1674,95.00000000,80.00045778
1675,95.00000000,81.00033570
1676,95.99993896,81.00033570
1677,95.99993896,81.00033570
1678,95.99993896,81.00033570
1679,95.99993896,81.00033570
1680,95.99993896,81.00033570
1681,95.99993896,81.00033570
1682,95.99993896,84.00099185
1683,95.99993896,86.00074770
1684,95.99993896,87.00062563
1685,95.99993896,86.00074770
1686,95.99993896,85.00086978
1687,95.99993896,85.00086978
1688,95.99993896,85.00086978
1689,95.99993896,84.00099185
1690,95.00000000,84.00099185
1691,95.00000000,84.00099185
1692,95.00000000,84.00099185
1693,95.00000000,84.00099185
1694,94.00006104,84.00099185
1695,94.00006104,84.00099185
1696,94.00006104,83.00009156
1697,94.00006104,83.00009156
1698,94.00006104,83.00009156
1699,94.00006104,83.00009156
1700,94.00006104,83.00009156
1701,94.00006104,84.00099185
1702,94.00006104,84.00099185
1703,94.00006104,85.00086978
1704,94.00006104,85.00086978
1705,95.00000000,84.00099185
1706,95.00000000,83.00009156
1707,95.00000000,82.00021363
1708,95.00000000,79.00057985
1709,95.00000000,78.00070193
1710,95.00000000,77.00082400
1711,95.00000000,77.00082400
1712,95.00000000,76.00094607
1713,95.00000000,77.00082400
1714,94.00006104,77.00082400
1715,94.00006104,77.00082400
1716,94.00006104,77.00082400
1717,94.00006104,77.00082400
1718,94.00006104,77.00082400
1719,94.00006104,77.00082400
1720,94.00006104,75.00004578
1721,94.00006104,74.00016785
1722,94.00006104,74.00016785
1723,95.00000000,73.00028993
1724,95.00000000,73.00028993
1725,94.00006104,74.00016785
1726,94.00006104,76.00094607
1727,94.00006104,77.00082400
1728,94.00006104,77.00082400
1729,94.00006104,78.00070193
1730,95.00000000,78.00070193
1731,94.00006104,77.00082400
1732,94.00006104,77.00082400
1733,94.00006104,77.00082400
1734,94.00006104,77.00082400
1735,94.00006104,77.00082400
1736,94.00006104,78.00070193
1737,94.00006104,79.00057985
1738,94.00006104,81.00033570
1739,94.00006104,81.00033570
1740,94.00006104,80.00045778
1741,94.00006104,79.00057985
1742,94.00006104,78.00070193
1743,95.00000000,77.00082400
1744,95.00000000,76.00094607
1745,95.00000000,76.00094607
1746,95.00000000,76.00094607
1747,95.00000000,76.00094607
1748,95.00000000,77.00082400
1749,95.00000000,77.00082400
1750,95.00000000,77.00082400
1751,94.00006104,77.00082400
1752,94.00006104,76.00094607
1753,94.00006104,77.00082400
1754,94.00006104,76.00094607
1755,94.00006104,77.00082400
1756,94.00006104,78.00070193
1757,94.00006104,79.00057985
1758,94.00006104,79.00057985
1759,94.00006104,80.00045778
1760,94.00006104,79.00057985
1761,94.00006104,79.00057985
1762,94.00006104,76.00094607
1763,94.00006104,75.00004578
1764,94.00006104,75.00004578
1765,94.00006104,75.00004578
1766,94.00006104,75.00004578
1767,94.00006104,76.00094607
1768,94.00006104,77.00082400
1769,94.00006104,76.00094607
1770,94.00006104,75.00004578
1771,94.00006104,74.00016785
1772,94.00006104,73.00028993
1773,94.00006104,73.00028993
1774,94.00006104,72.00041200
1775,94.00006104,72.00041200
1776,94.00006104,72.00041200
1777,94.00006104,73.00028993
1778,94.00006104,73.00028993
1779,94.00006104,74.00016785
1780,94.00006104,75.00004578
1781,94.00006104,75.00004578
1782,94.00006104,75.00004578
1783,94.00006104,74.00016785
1784,94.00006104,74.00016785
1785,94.00006104,74.00016785
1786,93.00004578,75.00004578
1787,93.00004578,75.00004578
1788,94.00006104,77.00082400
1789,94.00006104,77.00082400
1790,94.00006104,77.00082400
1791,94.00006104,77.00082400
1792,94.00006104,77.00082400
1793,94.00006104,77.00082400
1794,94.00006104,77.00082400
1795,94.00006104,77.00082400
1796,94.00006104,77.00082400
1797,94.00006104,77.00082400
1798,94.00006104,77.00082400
1799,94.00006104,77.00082400
1800,94.00006104,78.00070193
1801,94.00006104,78.00070193
1802,93.00004578,81.00033570
1803,93.00004578,81.00033570
1804,93.00004578,83.00009156
1805,94.00006104,84.00099185
1806,94.00006104,84.00099185
1807,94.00006104,84.00099185
1808,94.00006104,82.00021363
1809,94.00006104,80.00045778
1810,94.00006104,80.00045778
1811,94.00006104,79.00057985
1812,94.00006104,78.00070193
1813,94.00006104,79.00057985
1814,94.00006104,79.00057985
1815,94.00006104,80.00045778
1816,94.00006104,83.00009156
1817,94.00006104,83.00009156
1818,94.00006104,82.00021363
1819,95.00000000,81.00033570
1820,95.00000000,81.00033570
1821,95.00000000,81.00033570
1822,95.00000000,80.00045778
1823,95.99993896,80.00045778
1824,95.00000000,79.00057985
1825,95.00000000,79.00057985
1826,95.00000000,78.00070193
1827,95.00000000,78.00070193
1828,95.00000000,77.00082400
1829,95.00000000,77.00082400
1830,94.00006104,76.00094607
1831,94.00006104,75.00004578
1832,94.00006104,75.00004578
1833,94.00006104,75.00004578
1834,94.00006104,76.00094607
1835,94.00006104,75.00004578
1836,94.00006104,76.00094607
1837,94.00006104,75.00004578
1838,94.00006104,76.00094607
1839,94.00006104,78.00070193
1840,94.00006104,78.00070193
1841,94.00006104,79.00057985
1842,95.00000000,79.00057985
1843,95.00000000,79.00057985
1844,95.00000000,78.00070193
1845,94.00006104,78.00070193
1846,94.00006104,77.00082400
1847,94.00006104,77.00082400
1848,94.00006104,78.00070193
1849,94.00006104,78.00070193
1850,94.00006104,78.00070193
1851,93.00004578,77.00082400
1852,93.00004578,76.00094607
1853,93.00004578,76.00094607
1854,93.00004578,75.00004578
1855,94.00006104,75.00004578
1856,94.00006104,75.00004578
1857,93.00004578,76.00094607
1858,93.00004578,77.00082400
1859,93.00004578,77.00082400
1860,93.00004578,76.00094607
1861,94.00006104,76.00094607
1862,94.00006104,75.00004578
1863,94.00006104,73.00028993
1864,94.00006104,72.00041200
1865,94.00006104,72.00041200
1866,94.00006104,72.00041200
1867,94.00006104,74.00016785
1868,94.00006104,76.00094607
1869,94.00006104,76.00094607
1870,94.00006104,77.00082400
1871,94.00006104,76.00094607
1872,94.00006104,75.00004578
1873,94.00006104,74.00016785
1874,94.00006104,73.00028993
1875,94.00006104,73.00028993
1876,94.00006104,73.00028993
1877,94.00006104,73.00028993
1878,94.00006104,74.00016785
1879,94.00006104,74.00016785
1880,94.00006104,75.00004578
1881,94.00006104,75.00004578
1882,94.00006104,75.00004578
1883,94.00006104,75.00004578
1884,94.00006104,74.00016785
1885,94.00006104,74.00016785
1886,94.00006104,74.00016785
1887,94.00006104,74.00016785
1888,94.00006104,74.00016785
1889,94.00006104,75.00004578
1890,94.00006104,75.00004578
1891,94.00006104,75.00004578
1892,94.00006104,80.00045778
1893,93.00004578,80.00045778
1894,93.00004578,82.00021363
1895,93.00004578,82.00021363
1896,93.00004578,80.00045778
1897,93.00004578,79.00057985
1898,93.00004578,78.00070193
1899,93.00004578,77.00082400
1900,93.00004578,77.00082400
1901,93.00004578,77.00082400
1902,94.00006104,77.00082400
1903,94.00006104,77.00082400
1904,94.00006104,75.00004578
1905,94.00006104,74.00016785
1906,94.00006104,73.00028993
1907,94.00006104,73.00028993
1908,94.00006104,73.00028993
1909,93.00004578,73.00028993
1910,93.00004578,73.00028993
1911,93.00004578,73.00028993
1912,94.00006104,74.00016785
1913,94.00006104,76.00094607
1914,94.00006104,76.00094607
1915,94.00006104,76.00094607
1916,94.00006104,75.00004578
1917,94.00006104,75.00004578
1918,94.00006104,74.00016785
1919,94.00006104,75.00004578
1920,94.00006104,75.00004578
1921,95.00000000,75.00004578
1922,95.00000000,75.00004578
1923,95.00000000,76.00094607
1924,95.00000000,76.00094607
1925,95.00000000,77.00082400
1926,95.00000000,78.00070193
1927,95.00000000,76.00094607
1928,95.00000000,74.00016785
1929,95.00000000,71.00053407
1930,95.00000000,68.00090030
1931,95.00000000,67.00000000
1932,94.00006104,66.00012207
1933,94.00006104,65.00024415
1934,94.00006104,65.00024415
1935,94.00006104,66.00012207
1936,95.00000000,68.00090030
1937,95.00000000,68.00090030
1938,95.00000000,69.00077822
1939,95.00000000,69.00077822
1940,95.00000000,69.00077822
1941,95.99993896,69.00077822
1942,95.99993896,70.00065615
1943,95.99993896,70.00065615
1944,95.99993896,70.00065615
1945,95.99993896,70.00065615
1946,95.99993896,73.00028993
1947,95.99993896,76.00094607
1948,95.99993896,76.00094607
1949,95.99993896,76.00094607
1950,95.99993896,78.00070193
1951,95.99993896,79.00057985
1952,95.99993896,80.00045778
1953,95.99993896,80.00045778
1954,95.99993896,81.00033570
1955,95.99993896,81.00033570
1956,95.99993896,86.00074770
1957,95.99993896,87.00062563
1958,95.99993896,89.00038148
1959,95.99993896,90.00025941
1960,95.99993896,89.00038148
1961,95.99993896,88.00050356
1962,95.99993896,86.00074770
1963,95.99993896,84.00099185
1964,95.99993896,80.00045778
1965,95.99993896,78.00070193
1966,95.99993896,73.00028993
1967,95.99993896,73.00028993
1968,95.99993896,72.00041200
1969,95.99993896,72.00041200
1970,95.99993896,74.00016785
1971,95.99993896,74.00016785
1972,95.99993896,76.00094607
1973,95.99993896,76.00094607
1974,95.99993896,75.00004578
1975,95.99993896,74.00016785
1976,95.00000000,73.00028993
1977,95.00000000,73.00028993
1978,95.00000000,73.00028993
1979,95.00000000,73.00028993
1980,95.00000000,74.00016785
1981,95.00000000,75.00004578
1982,95.00000000,76.00094607
1983,95.00000000,76.00094607
1984,95.00000000,77.00082400
1985,95.00000000,76.00094607
1986,95.00000000,74.00016785
1987,94.00006104,74.00016785
1988,94.00006104,73.00028993
1989,94.00006104,73.00028993
1990,94.00006104,73.00028993
1991,94.00006104,73.00028993
1992,94.00006104,73.00028993
1993,94.00006104,74.00016785
1994,94.00006104,74.00016785
1995,94.00006104,75.00004578
1996,94.00006104,75.00004578
1997,94.00006104,75.00004578
1998,94.00006104,74.00016785
1999,95.00000000,73.00028993
2000,95.00000000,71.00053407
2001,94.00006104,71.00053407
2002,94.00006104,70.00065615
2003,94.00006104,70.00065615
2004,94.00006104,71.00053407
2005,94.00006104,71.00053407
2006,94.00006104,71.00053407
2007,94.00006104,72.00041200
2008,94.00006104,71.00053407
2009,94.00006104,71.00053407
2010,94.00006104,70.00065615
2011,94.00006104,70.00065615
2012,94.00006104,70.00065615
2013,94.00006104,70.00065615
2014,94.00006104,70.00065615
2015,94.00006104,70.00065615
2016,94.00006104,70.00065615
2017,94.00006104,70.00065615
2018,94.00006104,69.00077822
2019,94.00006104,69.00077822
2020,94.00006104,69.00077822
2021,94.00006104,70.00065615
2022,94.00006104,70.00065615
2023,94.00006104,70.00065615
2024,94.00006104,69.00077822
2025,94.00006104,70.00065615
2026,94.00006104,69.00077822
2027,94.00006104,69.00077822
2028,94.00006104,70.00065615
2029,94.00006104,70.00065615
2030,94.00006104,70.00065615
2031,94.00006104,70.00065615
2032,94.00006104,70.00065615
2033,94.00006104,70.00065615
2034,94.00006104,71.00053407
2035,95.00000000,70.00065615
2036,95.00000000,71.00053407
2037,95.00000000,71.00053407
2038,95.00000000,71.00053407
2039,95.00000000,71.00053407
2040,95.00000000,72.00041200
2041,95.00000000,72.00041200
2042,95.00000000,72.00041200
2043,94.00006104,75.00004578
2044,94.00006104,75.00004578
2045,94.00006104,76.00094607
2046,94.00006104,75.00004578
2047,95.00000000,74.00016785
2048,95.00000000,72.00041200
2049,95.00000000,71.00053407
2050,95.00000000,71.00053407
2051,95.00000000,70.00065615
2052,95.00000000,70.00065615
2053,95.00000000,70.00065615
2054,95.00000000,70.00065615
2055,95.00000000,70.00065615
2056,95.00000000,70.00065615
2057,95.00000000,70.00065615
2058,95.00000000,70.00065615
2059,95.00000000,70.00065615
2060,95.00000000,69.00077822
2061,95.00000000,70.00065615
2062,95.00000000,72.00041200
2063,95.00000000,72.00041200
2064,95.00000000,73.00028993
2065,95.00000000,74.00016785
2066,95.00000000,72.00041200
2067,95.00000000,71.00053407
2068,95.00000000,70.00065615
2069,95.00000000,69.00077822
2070,95.00000000,68.00090030
2071,95.00000000,68.00090030
2072,95.00000000,69.00077822
2073,95.00000000,69.00077822
2074,95.00000000,69.00077822
2075,95.00000000,70.00065615
2076,95.00000000,70.00065615
2077,95.00000000,70.00065615
2078,95.00000000,69.00077822
2079,95.00000000,69.00077822
2080,95.00000000,69.00077822
2081,95.00000000,69.00077822
2082,95.00000000,69.00077822
2083,95.00000000,69.00077822
2084,95.00000000,69.00077822
2085,95.00000000,69.00077822
2086,95.00000000,70.00065615
2087,95.00000000,70.00065615
2088,95.00000000,71.00053407
2089,95.00000000,72.00041200
2090,95.00000000,74.00016785
2091,95.00000000,74.00016785
2092,95.00000000,75.00004578
2093,95.00000000,77.00082400
2094,95.00000000,77.00082400
2095,95.00000000,80.00045778
2096,95.00000000,80.00045778
2097,95.00000000,80.00045778
2098,95.00000000,80.00045778
2099,95.00000000,80.00045778
2100,95.00000000,80.00045778
2101,95.00000000,80.00045778
2102,94.00006104,80.00045778
2103,94.00006104,79.00057985
2104,94.00006104,79.00057985
2105,94.00006104,78.00070193
2106,95.00000000,76.00094607
2107,95.00000000,75.00004578
2108,95.00000000,74.00016785
2109,95.00000000,73.00028993
2110,95.00000000,72.00041200
2111,95.00000000,72.00041200
2112,95.00000000,72.00041200
2113,94.00006104,72.00041200
2114,94.00006104,72.00041200
2115,94.00006104,72.00041200
2116,94.00006104,72.00041200
2117,94.00006104,72.00041200
2118,94.00006104,71.00053407
2119,94.00006104,71.00053407
2120,94.00006104,71.00053407
2121,94.00006104,71.00053407
2122,94.00006104,71.00053407
2123,94.00006104,70.00065615
2124,94.00006104,70.00065615
2125,94.00006104,70.00065615
2126,94.00006104,71.00053407
2127,94.00006104,71.00053407
2128,94.00006104,72.00041200
2129,94.00006104,72.00041200
2130,94.00006104,73.00028993
2131,94.00006104,72.00041200
2132,94.00006104,72.00041200
2133,94.00006104,71.00053407
2134,94.00006104,70.00065615
2135,94.00006104,70.00065615
2136,94.00006104,70.00065615
2137,94.00006104,71.00053407
2138,94.00006104,71.00053407
2139,94.00006104,72.00041200
2140,94.00006104,73.00028993
2141,94.00006104,74.00016785
2142,94.00006104,73.00028993
2143,94.00006104,72.00041200
2144,94.00006104,71.00053407
2145,94.00006104,69.00077822
2146,95.00000000,68.00090030
2147,95.00000000,68.00090030
2148,94.00006104,68.00090030
2149,94.00006104,68.00090030
2150,94.00006104,68.00090030
2151,94.00006104,68.00090030
2152,94.00006104,69.00077822
2153,94.00006104,70.00065615
2154,94.00006104,70.00065615
2155,94.00006104,70.00065615
2156,94.00006104,70.00065615
2157,94.00006104,69.00077822
2158,94.00006104,69.00077822
2159,94.00006104,69.00077822
2160,94.00006104,69.00077822
2161,94.00006104,69.00077822
2162,94.00006104,70.00065615
2163,94.00006104,70.00065615
2164,94.00006104,71.00053407
2165,95.00000000,75.00004578
2166,95.00000000,77.00082400
2167,95.00000000,77.00082400
2168,95.00000000,79.00057985
2169,94.00006104,78.00070193
2170,95.00000000,76.00094607
2171,95.00000000,75.00004578
2172,95.00000000,75.00004578
2173,95.00000000,77.00082400
2174,95.00000000,77.00082400
2175,95.00000000,78.00070193
2176,95.00000000,78.00070193
2177,95.00000000,77.00082400
2178,95.00000000,77.00082400
2179,95.00000000,75.00004578
2180,95.00000000,74.00016785
2181,95.00000000,73.00028993
2182,94.00006104,72.00041200
2183,94.00006104,72.00041200
2184,94.00006104,73.00028993
2185,94.00006104,74.00016785
2186,94.00006104,74.00016785
2187,94.00006104,74.00016785
2188,95.00000000,74.00016785
2189,94.00006104,74.00016785
2190,95.00000000,73.00028993
2191,94.00006104,73.00028993
2192,94.00006104,75.00004578
2193,94.00006104,76.00094607
2194,94.00006104,76.00094607
2195,94.00006104,77.00082400
2196,94.00006104,76.00094607
2197,95.00000000,75.00004578
2198,95.00000000,75.00004578
2199,95.00000000,79.00057985
2200,95.00000000,79.00057985
2201,95.00000000,83.00009156
2202,95.00000000,83.00009156
2203,95.00000000,84.00099185
2204,95.00000000,84.00099185
2205,95.00000000,84.00099185
2206,95.00000000,83.00009156
2207,95.00000000,81.00033570
2208,95.00000000,79.00057985
2209,95.00000000,78.00070193
2210,95.00000000,77.00082400
2211,95.00000000,76.00094607
2212,95.00000000,76.00094607
2213,95.00000000,75.00004578
2214,95.00000000,75.00004578
2215,95.00000000,74.00016785
2216,95.00000000,74.00016785
2217,95.00000000,72.00041200
2218,95.00000000,72.00041200
2219,95.00000000,71.00053407
2220,95.00000000,71.00053407
2221,95.00000000,71.00053407
2222,95.00000000,72.00041200
2223,95.00000000,72.00041200
2224,95.00000000,72.00041200
2225,95.00000000,72.00041200
2226,95.00000000,72.00041200
2227,95.00000000,72.00041200
2228,95.00000000,72.00041200
2229,95.00000000,72.00041200
2230,95.00000000,73.00028993
2231,95.00000000,75.00004578
2232,95.00000000,75.00004578
2233,95.00000000,77.00082400
2234,95.00000000,77.00082400
2235,95.00000000,76.00094607
2236,95.00000000,76.00094607
2237,95.00000000,75.00004578
2238,95.00000000,75.00004578
2239,95.99993896,84.00099185
2240,95.99993896,84.00099185
2241,95.99993896,85.00086978
2242,96.99995422,90.00025941
2243,96.99995422,93.00091556
2244,96.99995422,94.00079348
2245,95.99993896,97.00042726
2246,95.99993896,97.00042726
2247,95.99993896,94.00079348
2248,95.99993896,91.00013733
2249,95.99993896,89.00038148
2250,95.99993896,84.00099185
2251,95.99993896,83.00009156
2252,95.99993896,82.00021363
2253,95.99993896,81.00033570
2254,95.99993896,82.00021363
2255,95.99993896,84.00099185
2256,95.99993896,84.00099185
2257,95.99993896,85.00086978
2258,95.99993896,83.00009156
2259,95.00000000,82.00021363
2260,95.00000000,81.00033570
2261,95.00000000,79.00057985
2262,95.00000000,78.00070193
2263,95.00000000,78.00070193
2264,95.00000000,78.00070193
2265,95.00000000,78.00070193
2266,95.00000000,80.00045778
2267,94.00006104,80.00045778
2268,94.00006104,81.00033570
2269,94.00006104,82.00021363
2270,93.00004578,83.00009156
2271,93.00004578,83.00009156
2272,93.00004578,83.00009156
2273,93.00004578,82.00021363
2274,93.00004578,83.00009156
2275,93.00004578,83.00009156
2276,94.00006104,81.00033570
2277,94.00006104,80.00045778
2278,94.00006104,79.00057985
2279,94.00006104,78.00070193
2280,93.00004578,77.00082400
2281,93.00004578,76.00094607
2282,93.00004578,75.00004578
2283,94.00006104,76.00094607
2284,94.00006104,75.00004578
2285,94.00006104,76.00094607
2286,93.00004578,76.00094607
2287,93.00004578,77.00082400
2288,93.00004578,77.00082400
2289,93.00004578,76.00094607
2290,93.00004578,76.00094607
2291,93.00004578,75.00004578
2292,93.00004578,74.00016785
2293,93.00004578,74.00016785
2294,94.00006104,74.00016785
2295,94.00006104,74.00016785
2296,94.00006104,75.00004578
2297,94.00006104,74.00016785
2298,94.00006104,74.00016785
2299,94.00006104,73.00028993
2300,94.00006104,72.00041200
2301,94.00006104,72.00041200
2302,94.00006104,72.00041200
2303,94.00006104,72.00041200
2304,94.00006104,73.00028993
2305,94.00006104,73.00028993
2306,94.00006104,75.00004578
2307,94.00006104,76.00094607
2308,94.00006104,77.00082400
2309,94.00006104,77.00082400
2310,95.00000000,78.00070193
2311,94.00006104,81.00033570
2312,95.00000000,82.00021363
2313,94.00006104,83.00009156
2314,95.00000000,83.00009156
2315,95.00000000,81.00033570
2316,95.00000000,80.00045778
2317,94.00006104,78.00070193
2318,94.00006104,76.00094607
2319,94.00006104,75.00004578
2320,94.00006104,75.00004578
2321,94.00006104,75.00004578
2322,94.00006104,75.00004578
2323,94.00006104,75.00004578
2324,94.00006104,75.00004578
2325,95.00000000,74.00016785
2326,95.00000000,73.00028993
2327,95.00000000,73.00028993
2328,95.00000000,73.00028993
2329,95.00000000,73.00028993
2330,95.00000000,73.00028993
2331,95.00000000,73.00028993
2332,94.00006104,74.00016785
2333,94.00006104,75.00004578
2334,94.00006104,77.00082400
2335,94.00006104,77.00082400
2336,94.00006104,77.00082400
2337,94.00006104,78.00070193
2338,94.00006104,77.00082400
2339,94.00006104,75.00004578
2340,95.00000000,75.00004578
2341,95.00000000,74.00016785
2342,95.00000000,73.00028993
2343,95.00000000,74.00016785
2344,95.00000000,74.00016785
2345,95.00000000,74.00016785
2346,95.00000000,76.00094607
2347,95.00000000,76.00094607
2348,95.00000000,77.00082400
2349,95.00000000,77.00082400
2350,95.00000000,77.00082400
2351,95.00000000,77.00082400
2352,95.00000000,77.00082400
2353,95.00000000,77.00082400
2354,94.00006104,77.00082400
2355,94.00006104,78.00070193
2356,94.00006104,78.00070193
2357,94.00006104,80.00045778
2358,94.00006104,81.00033570
2359,94.00006104,79.00057985
2360,94.00006104,77.00082400
2361,94.00006104,73.00028993
2362,94.00006104,73.00028993
2363,94.00006104,72.00041200
2364,94.00006104,71.00053407
2365,94.00006104,71.00053407
2366,94.00006104,71.00053407
2367,94.00006104,71.00053407
2368,94.00006104,71.00053407
2369,94.00006104,71.00053407
2370,94.00006104,71.00053407
2371,94.00006104,72.00041200
2372,94.00006104,72.00041200
2373,94.00006104,72.00041200
2374,94.00006104,73.00028993
2375,94.00006104,73.00028993
2376,94.00006104,73.00028993
2377,93.00004578,73.00028993
2378,93.00004578,73.00028993
2379,93.00004578,73.00028993
2380,93.00004578,73.00028993
2381,93.00004578,73.00028993
2382,94.00006104,74.00016785
2383,94.00006104,74.00016785
2384,94.00006104,75.00004578
2385,94.00006104,75.00004578
2386,94.00006104,76.00094607
2387,94.00006104,76.00094607
2388,94.00006104,76.00094607
2389,94.00006104,75.00004578
2390,94.00006104,74.00016785
2391,94.00006104,74.00016785
2392,94.00006104,73.00028993
2393,94.00006104,73.00028993
2394,94.00006104,73.00028993
2395,94.00006104,73.00028993
2396,94.00006104,73.00028993
2397,94.00006104,73.00028993
2398,94.00006104,74.00016785
2399,94.00006104,74.00016785
2400,94.00006104,74.00016785
2401,94.00006104,74.00016785
2402,94.00006104,74.00016785
2403,94.00006104,73.00028993
2404,94.00006104,73.00028993
2405,94.00006104,73.00028993
2406,94.00006104,73.00028993
2407,94.00006104,74.00016785
2408,94.00006104,75.00004578
2409,94.00006104,75.00004578
2410,94.00006104,75.00004578
2411,94.00006104,74.00016785
2412,94.00006104,73.00028993
2413,94.00006104,72.00041200
2414,94.00006104,72.00041200
2415,94.00006104,71.00053407
2416,94.00006104,71.00053407
2417,94.00006104,72.00041200
2418,94.00006104,72.00041200
2419,94.00006104,72.00041200
2420,94.00006104,73.00028993
2421,94.00006104,73.00028993
2422,94.00006104,73.00028993
2423,94.00006104,74.00016785
2424,94.00006104,74.00016785
2425,94.00006104,73.00028993
2426,94.00006104,72.00041200
2427,94.00006104,72.00041200
2428,94.00006104,72.00041200
2429,94.00006104,72.00041200
2430,94.00006104,72.00041200
2431,94.00006104,72.00041200
2432,94.00006104,72.00041200
2433,94.00006104,72.00041200
2434,94.00006104,72.00041200
2435,94.00006104,71.00053407
2436,94.00006104,71.00053407
2437,94.00006104,71.00053407
2438,94.00006104,71.00053407
2439,94.00006104,71.00053407
2440,94.00006104,71.00053407
2441,94.00006104,71.00053407
2442,94.00006104,71.00053407
2443,94.00006104,71.00053407
2444,94.00006104,70.00065615
2445,94.00006104,70.00065615
2446,94.00006104,70.00065615
2447,94.00006104,71.00053407
2448,94.00006104,71.00053407
2449,94.00006104,72.00041200
2450,94.00006104,72.00041200
2451,94.00006104,72.00041200
2452,94.00006104,73.00028993
2453,94.00006104,73.00028993
2454,94.00006104,74.00016785
2455,94.00006104,73.00028993
2456,94.00006104,73.00028993
2457,94.00006104,72.00041200
2458,94.00006104,72.00041200
2459,94.00006104,71.00053407
2460,94.00006104,71.00053407
2461,94.00006104,71.00053407
2462,94.00006104,71.00053407
2463,94.00006104,71.00053407
2464,94.00006104,72.00041200
2465,94.00006104,72.00041200
2466,94.00006104,72.00041200
2467,94.00006104,72.00041200
2468,94.00006104,72.00041200
2469,94.00006104,72.00041200
2470,94.00006104,72.00041200
2471,94.00006104,71.00053407
2472,94.00006104,71.00053407
2473,94.00006104,71.00053407
2474,94.00006104,72.00041200
2475,94.00006104,72.00041200
2476,94.00006104,72.00041200
2477,94.00006104,72.00041200
2478,94.00006104,71.00053407
2479,94.00006104,71.00053407
2480,94.00006104,70.00065615
2481,94.00006104,70.00065615
2482,95.00000000,70.00065615
2483,95.00000000,71.00053407
2484,94.00006104,73.00028993
2485,95.00000000,73.00028993
2486,94.00006104,74.00016785
2487,94.00006104,74.00016785
2488,95.00000000,75.00004578
2489,94.00006104,75.00004578
2490,94.00006104,75.00004578
2491,95.00000000,76.00094607
2492,95.00000000,76.00094607
2493,95.00000000,76.00094607
2494,95.00000000,77.00082400
2495,95.00000000,77.00082400
2496,95.00000000,77.00082400
2497,95.00000000,77.00082400
2498,95.00000000,77.00082400
2499,95.00000000,76.00094607
2500,95.00000000,76.00094607
2501,95.00000000,76.00094607
2502,95.00000000,76.00094607
2503,95.00000000,76.00094607
2504,95.00000000,75.00004578
2505,95.00000000,75.00004578
2506,95.99993896,76.00094607
2507,95.99993896,76.00094607
2508,95.99993896,77.00082400
2509,95.99993896,78.00070193
2510,95.99993896,78.00070193
2511,95.00000000,79.00057985
2512,95.00000000,79.00057985
2513,95.00000000,79.00057985
2514,95.00000000,78.00070193
2515,95.00000000,77.00082400
2516,95.00000000,76.00094607
2517,95.00000000,76.00094607
2518,95.00000000,76.00094607
2519,95.99993896,77.00082400
2520,95.99993896,78.00070193
2521,95.99993896,78.00070193
2522,95.99993896,79.00057985
2523,95.99993896,78.00070193
2524,95.99993896,78.00070193
2525,95.99993896,78.00070193
2526,95.99993896,77.00082400
2527,95.99993896,77.00082400
2528,95.99993896,76.00094607
2529,95.99993896,76.00094607
2530,95.99993896,75.00004578
2531,95.99993896,75.00004578
2532,95.99993896,75.00004578
2533,95.00000000,74.00016785
2534,95.00000000,74.00016785
2535,95.00000000,74.00016785
2536,95.00000000,74.00016785
2537,95.00000000,72.00041200
