'sample interval','SpO2','hr'
'1 sec','%','bpm'
0,96.99996948,70.00056459
1,96.99996948,68.00007630
2,96.99996948,68.00007630
3,96.99996948,69.00032044
4,96.99996948,71.00080874
5,96.99996948,71.00080874
6,96.99996948,74.00067141
7,96.99996948,74.00067141
8,96.99996948,75.00004578
9,96.00000000,73.00042726
10,96.00000000,73.00042726
11,96.00000000,73.00042726
12,96.00000000,73.00042726
13,96.00000000,74.00067141
14,96.00000000,74.00067141
15,96.00000000,75.00004578
16,96.00000000,77.00053407
17,96.00000000,78.00077822
18,96.00000000,77.00053407
19,96.00000000,76.00028993
20,96.00000000,76.00028993
21,96.00000000,75.00004578
22,96.00000000,75.00004578
23,96.00000000,76.00028993
24,96.00000000,76.00028993
25,96.00000000,77.00053407
26,96.00000000,77.00053407
27,96.00000000,76.00028993
28,96.00000000,75.00004578
29,96.00000000,73.00042726
30,96.00000000,71.00080874
31,96.00000000,70.00056459
32,96.00000000,68.00007630
33,96.00000000,67.00070193
34,96.00000000,66.00045778
35,96.00000000,66.00045778
36,96.00000000,66.00045778
37,96.00000000,66.00045778
38,96.00000000,67.00070193
39,96.00000000,67.00070193
40,96.00000000,68.00007630
41,96.00000000,68.00007630
42,96.00000000,68.00007630
43,96.00000000,70.00056459
44,96.00000000,70.00056459
45,96.99996948,70.00056459
46,96.00000000,71.00080874
47,96.00000000,71.00080874
48,96.00000000,72.00018311
49,96.00000000,72.00018311
50,96.00000000,71.00080874
51,96.00000000,70.00056459
52,96.00000000,70.00056459
53,96.00000000,69.00032044
54,96.00000000,71.00080874
55,96.00000000,71.00080874
56,96.00000000,72.00018311
57,96.00000000,71.00080874
58,96.00000000,71.00080874
59,96.00000000,70.00056459
60,96.00000000,69.00032044
61,96.00000000,69.00032044
62,96.00000000,69.00032044
63,96.00000000,69.00032044
64,96.00000000,69.00032044
65,96.00000000,71.00080874
66,96.00000000,72.00018311
67,96.00000000,72.00018311
68,96.00000000,73.00042726
69,96.00000000,72.00018311
70,96.00000000,72.00018311
71,96.00000000,72.00018311
72,96.00000000,72.00018311
73,96.00000000,72.00018311
74,96.00000000,74.00067141
75,96.00000000,75.00004578
76,96.00000000,74.00067141
77,96.00000000,74.00067141
78,96.00000000,74.00067141
79,96.00000000,74.00067141
80,96.00000000,74.00067141
81,96.00000000,75.00004578
82,96.00000000,79.00015259
83,96.00000000,79.00015259
84,96.00000000,81.00064089
85,96.00000000,79.00015259
86,96.00000000,77.00053407
87,96.00000000,77.00053407
88,96.00000000,76.00028993
89,96.00000000,75.00004578
90,96.00000000,74.00067141
91,96.00000000,73.00042726
92,96.00000000,73.00042726
93,96.00000000,73.00042726
94,96.00000000,73.00042726
95,96.00000000,73.00042726
96,96.00000000,73.00042726
97,96.00000000,72.00018311
98,96.00000000,71.00080874
99,96.00000000,70.00056459
100,96.00000000,69.00032044
101,96.00000000,71.00080874
102,96.00000000,71.00080874
103,96.00000000,72.00018311
104,96.00000000,71.00080874
105,96.00000000,71.00080874
106,96.00000000,70.00056459
107,96.00000000,71.00080874
108,96.00000000,73.00042726
109,96.00000000,73.00042726
110,96.00000000,73.00042726
111,96.00000000,72.00018311
112,96.00000000,70.00056459
113,96.00000000,69.00032044
114,96.00000000,68.00007630
115,96.00000000,67.00070193
116,96.00000000,69.00032044
117,96.00000000,70.00056459
118,96.00000000,71.00080874
119,96.00000000,71.00080874
120,96.00000000,72.00018311
121,96.00000000,71.00080874
122,96.00000000,70.00056459
123,96.00000000,69.00032044
124,96.00000000,67.00070193
125,96.00000000,67.00070193
126,96.00000000,66.00045778
127,96.00000000,67.00070193
128,96.00000000,68.00007630
129,96.00000000,70.00056459
130,96.00000000,71.00080874
131,96.00000000,70.00056459
132,96.00000000,70.00056459
133,96.00000000,70.00056459
134,96.00000000,70.00056459
135,96.00000000,71.00080874
136,96.00000000,73.00042726
137,96.00000000,73.00042726
138,96.00000000,75.00004578
139,96.00000000,75.00004578
140,96.00000000,76.00028993
141,96.00000000,76.00028993
142,96.00000000,74.00067141
143,96.00000000,74.00067141
144,96.00000000,72.00018311
145,96.00000000,72.00018311
146,96.00000000,72.00018311
147,96.00000000,72.00018311
148,96.00000000,70.00056459
149,96.00000000,68.00007630
150,96.00000000,67.00070193
151,96.00000000,66.00045778
152,96.00000000,66.00045778
153,96.00000000,67.00070193
154,96.00000000,67.00070193
155,96.00000000,68.00007630
156,96.00000000,69.00032044
157,96.00000000,70.00056459
158,96.00000000,70.00056459
159,96.00000000,70.00056459
160,96.00000000,71.00080874
161,96.00000000,71.00080874
162,96.00000000,70.00056459
163,96.00000000,70.00056459
164,96.00000000,71.00080874
165,96.00000000,71.00080874
166,96.00000000,70.00056459
167,96.00000000,70.00056459
168,96.00000000,71.00080874
169,96.00000000,72.00018311
170,96.00000000,72.00018311
171,96.00000000,72.00018311
172,96.00000000,73.00042726
173,96.00000000,73.00042726
174,96.00000000,73.00042726
175,95.00003052,73.00042726
176,95.00003052,73.00042726
177,95.00003052,73.00042726
178,96.00000000,72.00018311
179,96.00000000,72.00018311
180,96.00000000,73.00042726
181,96.00000000,74.00067141
182,96.00000000,74.00067141
183,96.00000000,75.00004578
184,96.00000000,76.00028993
185,96.00000000,75.00004578
186,96.00000000,74.00067141
187,96.00000000,74.00067141
188,96.00000000,74.00067141
189,95.00003052,75.00004578
190,95.00003052,74.00067141
191,95.00003052,74.00067141
192,95.00003052,74.00067141
193,95.00003052,74.00067141
194,95.00003052,74.00067141
195,95.00003052,74.00067141
196,95.00003052,74.00067141
197,96.00000000,74.00067141
198,96.00000000,74.00067141
199,96.00000000,74.00067141
200,96.00000000,74.00067141
201,96.00000000,74.00067141
202,96.00000000,73.00042726
203,96.00000000,73.00042726
204,96.00000000,74.00067141
205,95.00003052,74.00067141
206,95.00003052,74.00067141
207,95.00003052,75.00004578
208,95.00003052,75.00004578
209,95.00003052,74.00067141
210,96.00000000,76.00028993
211,96.00000000,76.00028993
212,96.00000000,75.00004578
213,96.00000000,75.00004578
214,96.00000000,76.00028993
215,96.00000000,76.00028993
216,96.00000000,76.00028993
217,96.00000000,77.00053407
218,96.00000000,77.00053407
219,96.00000000,77.00053407
220,96.00000000,77.00053407
221,96.00000000,78.00077822
222,96.00000000,77.00053407
223,96.00000000,76.00028993
224,96.00000000,76.00028993
225,96.00000000,77.00053407
226,96.00000000,77.00053407
227,96.00000000,77.00053407
228,96.00000000,77.00053407
229,96.00000000,77.00053407
230,96.00000000,77.00053407
231,96.00000000,77.00053407
232,96.00000000,77.00053407
233,96.00000000,77.00053407
234,96.00000000,77.00053407
235,96.00000000,76.00028993
236,96.00000000,76.00028993
237,96.00000000,75.00004578
238,96.00000000,74.00067141
239,96.00000000,74.00067141
240,96.00000000,74.00067141
241,96.00000000,74.00067141
242,96.00000000,74.00067141
243,96.00000000,74.00067141
244,96.00000000,75.00004578
245,96.00000000,76.00028993
246,96.00000000,76.00028993
247,95.00003052,76.00028993
248,95.00003052,77.00053407
249,95.00003052,76.00028993
250,95.00003052,76.00028993
251,96.00000000,76.00028993
252,96.00000000,76.00028993
253,96.00000000,75.00004578
254,96.00000000,75.00004578
255,96.00000000,75.00004578
256,96.00000000,72.00018311
257,96.00000000,71.00080874
258,96.00000000,71.00080874
259,96.00000000,71.00080874
260,96.00000000,70.00056459
261,96.00000000,71.00080874
262,96.00000000,70.00056459
263,95.00003052,70.00056459
264,95.00003052,70.00056459
265,95.00003052,70.00056459
266,95.00003052,72.00018311
267,95.00003052,72.00018311
268,95.00003052,73.00042726
269,95.00003052,73.00042726
270,95.00003052,73.00042726
271,95.00003052,72.00018311
272,95.00003052,70.00056459
273,95.00003052,70.00056459
274,95.00003052,70.00056459
275,95.00003052,69.00032044
276,95.00003052,70.00056459
277,95.00003052,69.00032044
278,95.00003052,70.00056459
279,95.00003052,69.00032044
280,95.00003052,69.00032044
281,95.00003052,69.00032044
282,95.00003052,69.00032044
283,95.00003052,70.00056459
284,95.00003052,69.00032044
285,95.00003052,70.00056459
286,95.00003052,70.00056459
287,95.00003052,71.00080874
288,95.00003052,74.00067141
289,95.00003052,76.00028993
290,95.00003052,80.00039674
291,96.00000000,80.00039674
292,96.00000000,81.00064089
293,96.00000000,80.00039674
294,96.00000000,78.00077822
295,96.00000000,78.00077822
296,96.00000000,78.00077822
297,96.00000000,78.00077822
298,96.00000000,77.00053407
299,96.00000000,77.00053407
300,96.00000000,78.00077822
301,95.00003052,76.00028993
302,95.00003052,77.00053407
303,95.00003052,77.00053407
304,96.00000000,82.00001526
305,96.00000000,85.00074770
306,96.00000000,86.99949644
307,96.00000000,86.99949644
308,96.00000000,88.99998474
309,96.00000000,88.99998474
310,96.00000000,91.99984741
311,96.00000000,91.99984741
312,96.00000000,91.99984741
313,96.00000000,91.99984741
314,96.00000000,88.99998474
315,96.99996948,86.99949644
316,96.99996948,83.00025941
317,96.99996948,82.00001526
318,96.99996948,79.00015259
319,96.99996948,78.00077822
320,96.99996948,76.00028993
321,96.99996948,76.00028993
322,96.99996948,78.00077822
323,96.99996948,80.00039674
324,96.99996948,80.00039674
325,96.99996948,83.00025941
326,96.99996948,83.00025941
327,96.99996948,86.00012207
328,96.99996948,86.00012207
329,96.99996948,86.99949644
330,96.99996948,86.99949644
331,96.99996948,84.00050356
332,96.99996948,85.00074770
333,96.99996948,82.00001526
334,96.99996948,87.99974059
335,96.99996948,87.99974059
336,96.99996948,87.99974059
337,96.99996948,90.99960326
338,96.99996948,90.99960326
339,96.99996948,96.99932859
340,96.00000000,98.99981689
341,96.00000000,99.99919126
342,96.00000000,100.99943541
343,96.00000000,98.99981689
344,96.00000000,98.99981689
345,96.00000000,97.99957274
346,96.00000000,97.99957274
347,96.00000000,98.99981689
348,96.00000000,99.99919126
349,96.99996948,98.99981689
350,96.00000000,97.99957274
351,96.99996948,96.99932859
352,96.99996948,96.99932859
353,96.99996948,96.99932859
354,96.99996948,97.99957274
355,96.99996948,98.99981689
356,96.99996948,99.99919126
357,96.99996948,99.99919126
358,96.99996948,101.99967956
359,96.00000000,101.99967956
360,96.00000000,102.99992370
361,96.00000000,102.99992370
362,96.99996948,102.99992370
363,96.00000000,101.99967956
364,96.00000000,102.99992370
365,96.00000000,102.99992370
366,96.00000000,102.99992370
367,96.00000000,102.99992370
368,96.00000000,102.99992370
369,96.00000000,102.99992370
370,96.00000000,102.99992370
371,96.00000000,102.99992370
372,96.00000000,102.99992370
373,96.00000000,102.99992370
374,96.00000000,102.99992370
375,96.00000000,102.99992370
376,96.00000000,102.99992370
377,96.00000000,102.99992370
378,96.00000000,101.99967956
379,96.00000000,101.99967956
380,95.00003052,101.99967956
381,95.00003052,102.99992370
382,95.00003052,102.99992370
383,95.00003052,102.99992370
384,95.00003052,103.99929807
385,95.00003052,103.99929807
386,95.00003052,103.99929807
387,95.00003052,104.99954222
388,95.00003052,104.99954222
389,95.00003052,104.99954222
390,95.00003052,104.99954222
391,95.00003052,106.99916074
392,95.00003052,106.99916074
393,95.00003052,108.99964904
394,95.00003052,108.99964904
395,95.00003052,114.00000000
396,95.00003052,114.00000000
397,95.00003052,114.99937437
398,95.00003052,114.99937437
399,95.00003052,112.99975585
400,96.00000000,112.99975585
401,96.00000000,107.99940489
402,96.99996948,107.99940489
403,96.99996948,104.99954222
404,96.99996948,104.99954222
405,96.99996948,103.99929807
406,96.99996948,103.99929807
407,96.99996948,103.99929807
408,96.99996948,103.99929807
409,96.99996948,103.99929807
410,96.99996948,103.99929807
411,96.99996948,103.99929807
412,97.99993896,103.99929807
413,97.99993896,102.99992370
414,96.99996948,100.99943541
415,96.99996948,98.99981689
416,96.99996948,98.99981689
417,96.99996948,98.99981689
418,96.99996948,98.99981689
419,96.99996948,92.99922178
420,96.99996948,89.99935911
421,96.00000000,90.99960326
422,96.00000000,90.99960326
423,96.00000000,93.99946593
424,96.00000000,93.99946593
425,96.00000000,93.99946593
426,96.00000000,93.99946593
427,96.00000000,95.99995422
428,96.00000000,95.99995422
429,96.00000000,95.99995422
430,96.00000000,97.99957274
431,96.00000000,97.99957274
432,96.00000000,98.99981689
433,96.00000000,99.99919126
434,96.00000000,99.99919126
435,96.00000000,99.99919126
436,96.00000000,99.99919126
437,96.00000000,99.99919126
438,96.00000000,99.99919126
439,96.00000000,99.99919126
440,95.00003052,99.99919126
441,95.00003052,98.99981689
442,95.00003052,98.99981689
443,95.00003052,98.99981689
444,95.00003052,98.99981689
445,96.00000000,100.99943541
446,96.00000000,100.99943541
447,96.00000000,100.99943541
448,96.00000000,100.99943541
449,96.00000000,100.99943541
450,96.00000000,101.99967956
451,96.00000000,101.99967956
452,96.00000000,101.99967956
453,96.00000000,101.99967956
454,96.00000000,101.99967956
455,96.00000000,101.99967956
456,96.00000000,101.99967956
457,96.00000000,101.99967956
458,96.00000000,101.99967956
459,96.00000000,101.99967956
460,96.00000000,101.99967956
461,96.00000000,101.99967956
462,96.00000000,101.99967956
463,96.00000000,101.99967956
464,96.00000000,101.99967956
465,96.00000000,101.99967956
466,96.00000000,106.99916074
467,96.00000000,107.99940489
468,96.00000000,107.99940489
469,96.00000000,107.99940489
470,96.00000000,107.99940489
471,96.00000000,107.99940489
472,96.00000000,107.99940489
473,96.00000000,110.99926756
474,96.00000000,110.99926756
475,96.00000000,111.99951170
476,96.00000000,111.99951170
477,95.00003052,111.99951170
478,95.00003052,111.99951170
479,95.00003052,111.99951170
480,95.00003052,111.99951170
481,95.00003052,111.99951170
482,95.00003052,110.99926756
483,95.00003052,110.99926756
484,95.00003052,110.99926756
485,95.00003052,110.99926756
486,95.00003052,110.99926756
487,95.00003052,110.99926756
488,95.00003052,110.99926756
489,95.00003052,110.99926756
490,95.00003052,110.99926756
491,95.00003052,110.99926756
492,96.00000000,110.99926756
493,96.00000000,111.99951170
494,96.00000000,111.99951170
495,96.00000000,111.99951170
496,96.00000000,111.99951170
497,96.00000000,111.99951170
498,96.00000000,111.99951170
499,96.00000000,111.99951170
500,96.00000000,111.99951170
501,96.00000000,111.99951170
502,96.00000000,111.99951170
503,96.00000000,111.99951170
504,96.00000000,110.99926756
505,96.00000000,105.99978637
506,96.00000000,105.99978637
507,96.00000000,105.99978637
508,96.00000000,105.99978637
509,96.00000000,104.99954222
510,96.00000000,104.99954222
511,96.00000000,104.99954222
512,96.00000000,104.99954222
513,96.00000000,101.99967956
514,96.00000000,99.99919126
515,96.00000000,99.99919126
516,96.00000000,99.99919126
517,96.00000000,101.99967956
518,96.00000000,101.99967956
519,96.00000000,101.99967956
520,96.00000000,101.99967956
521,96.00000000,102.99992370
522,96.00000000,101.99967956
523,96.00000000,103.99929807
524,96.00000000,102.99992370
525,96.00000000,103.99929807
526,96.00000000,103.99929807
527,95.00003052,105.99978637
528,95.00003052,106.99916074
529,95.00003052,106.99916074
530,95.00003052,106.99916074
531,95.00003052,106.99916074
532,95.00003052,105.99978637
533,95.00003052,104.99954222
534,94.00006104,105.99978637
535,94.00006104,105.99978637
536,94.00006104,106.99916074
537,94.00006104,107.99940489
538,94.00006104,107.99940489
539,94.00006104,107.99940489
540,94.00006104,107.99940489
541,94.00006104,107.99940489
542,94.00006104,108.99964904
543,95.00003052,108.99964904
544,95.00003052,108.99964904
545,95.00003052,108.99964904
546,95.00003052,107.99940489
547,95.00003052,107.99940489
548,95.00003052,107.99940489
549,95.00003052,107.99940489
550,95.00003052,107.99940489
551,94.00006104,107.99940489
552,93.00000000,106.99916074
553,93.00000000,105.99978637
554,93.00000000,105.99978637
555,93.00000000,106.99916074
556,93.00000000,106.99916074
557,93.00000000,106.99916074
558,93.00000000,106.99916074
559,93.00000000,107.99940489
560,93.00000000,107.99940489
561,93.00000000,107.99940489
562,94.00006104,107.99940489
563,94.00006104,107.99940489
564,94.00006104,107.99940489
565,94.00006104,107.99940489
566,94.00006104,107.99940489
567,94.00006104,107.99940489
568,94.00006104,108.99964904
569,94.00006104,108.99964904
570,94.00006104,108.99964904
571,95.00003052,109.99989318
572,95.00003052,109.99989318
573,95.00003052,109.99989318
574,95.00003052,109.99989318
575,95.00003052,109.99989318
576,95.00003052,109.99989318
577,95.00003052,109.99989318
578,95.00003052,109.99989318
579,95.00003052,109.99989318
580,95.00003052,109.99989318
581,95.00003052,109.99989318
582,95.00003052,109.99989318
583,95.00003052,109.99989318
584,95.00003052,109.99989318
585,95.00003052,109.99989318
586,95.00003052,108.99964904
587,96.00000000,107.99940489
588,96.00000000,108.99964904
589,96.00000000,108.99964904
590,96.00000000,109.99989318
591,96.00000000,109.99989318
592,96.00000000,109.99989318
593,96.00000000,109.99989318
594,96.00000000,109.99989318
595,96.00000000,109.99989318
596,96.00000000,109.99989318
597,96.00000000,109.99989318
598,96.00000000,109.99989318
599,96.00000000,109.99989318
600,96.00000000,109.99989318
601,96.00000000,109.99989318
602,96.00000000,109.99989318
603,96.00000000,109.99989318
604,96.00000000,109.99989318
605,96.00000000,109.99989318
606,96.00000000,109.99989318
607,96.00000000,109.99989318
608,96.00000000,110.99926756
609,96.00000000,110.99926756
610,96.00000000,110.99926756
611,96.00000000,110.99926756
612,96.00000000,110.99926756
613,96.00000000,110.99926756
614,96.00000000,110.99926756
615,96.00000000,111.99951170
616,96.00000000,111.99951170
617,96.00000000,112.99975585
618,96.99996948,112.99975585
619,96.99996948,112.99975585
620,96.99996948,112.99975585
621,96.99996948,111.99951170
622,96.99996948,111.99951170
623,96.99996948,110.99926756
624,96.99996948,110.99926756
625,96.99996948,110.99926756
626,96.99996948,110.99926756
627,96.99996948,110.99926756
628,96.99996948,110.99926756
629,96.99996948,110.99926756
630,96.99996948,110.99926756
631,96.99996948,105.99978637
632,96.99996948,103.99929807
633,96.99996948,103.99929807
634,96.99996948,101.99967956
635,96.99996948,98.99981689
636,96.99996948,96.99932859
637,96.99996948,94.99971007
638,96.99996948,94.99971007
639,96.99996948,90.99960326
640,96.99996948,89.99935911
641,96.99996948,87.99974059
642,96.99996948,85.00074770
643,96.99996948,82.00001526
644,96.99996948,81.00064089
645,96.99996948,80.00039674
646,96.99996948,78.00077822
647,96.99996948,76.00028993
648,96.99996948,76.00028993
649,96.99996948,76.00028993
650,96.99996948,76.00028993
651,96.99996948,76.00028993
652,96.00000000,76.00028993
653,96.00000000,77.00053407
654,96.00000000,77.00053407
655,96.00000000,75.00004578
656,96.00000000,75.00004578
657,96.00000000,75.00004578
658,96.00000000,75.00004578
659,96.00000000,75.00004578
660,96.00000000,75.00004578
661,96.00000000,75.00004578
662,96.00000000,76.00028993
663,96.00000000,76.00028993
664,96.00000000,78.00077822
665,96.00000000,79.00015259
666,96.00000000,78.00077822
667,96.00000000,78.00077822
668,96.00000000,79.00015259
669,96.00000000,78.00077822
670,96.00000000,77.00053407
671,96.00000000,78.00077822
672,96.00000000,78.00077822
673,96.00000000,77.00053407
674,96.00000000,75.00004578
675,96.00000000,74.00067141
676,96.00000000,73.00042726
677,96.00000000,71.00080874
678,96.00000000,70.00056459
679,96.00000000,71.00080874
680,96.00000000,70.00056459
681,96.00000000,69.00032044
682,96.99996948,69.00032044
683,96.00000000,70.00056459
684,96.00000000,70.00056459
685,96.00000000,70.00056459
686,96.00000000,70.00056459
687,96.00000000,71.00080874
688,96.00000000,70.00056459
689,96.00000000,70.00056459
690,96.00000000,69.00032044
691,96.00000000,69.00032044
692,96.00000000,69.00032044
693,96.00000000,69.00032044
694,96.00000000,68.00007630
695,96.00000000,68.00007630
696,96.00000000,69.00032044
697,96.00000000,68.00007630
698,96.00000000,68.00007630
699,96.00000000,67.00070193
700,96.00000000,68.00007630
701,96.00000000,68.00007630
702,96.00000000,69.00032044
703,96.00000000,75.00004578
704,96.00000000,75.00004578
705,96.00000000,83.00025941
706,96.00000000,83.00025941
707,96.00000000,86.00012207
708,96.00000000,84.00050356
709,96.00000000,82.00001526
710,96.00000000,81.00064089
711,96.00000000,79.00015259
712,96.00000000,77.00053407
713,96.00000000,77.00053407
714,96.00000000,77.00053407
715,96.00000000,75.00004578
716,96.00000000,75.00004578
717,96.00000000,74.00067141
718,96.00000000,71.00080874
719,96.00000000,70.00056459
720,96.00000000,68.00007630
721,96.00000000,66.00045778
722,96.00000000,66.00045778
723,96.00000000,66.00045778
724,96.00000000,67.00070193
725,96.00000000,67.00070193
726,96.00000000,67.00070193
727,96.00000000,69.00032044
728,96.00000000,68.00007630
729,96.00000000,67.00070193
730,96.00000000,67.00070193
731,96.00000000,67.00070193
732,96.00000000,67.00070193
733,96.00000000,68.00007630
734,96.00000000,71.00080874
735,96.00000000,71.00080874
736,96.00000000,71.00080874
737,96.00000000,71.00080874
738,96.00000000,70.00056459
739,96.00000000,69.00032044
740,96.00000000,69.00032044
741,96.00000000,70.00056459
742,96.00000000,70.00056459
743,96.00000000,70.00056459
744,96.00000000,68.00007630
745,96.00000000,67.00070193
746,96.00000000,65.00021363
747,96.00000000,65.00021363
748,96.00000000,65.00021363
749,96.00000000,66.00045778
750,96.00000000,67.00070193
751,96.00000000,70.00056459
752,96.00000000,71.00080874
753,96.00000000,71.00080874
754,96.00000000,71.00080874
755,96.00000000,70.00056459
756,96.00000000,70.00056459
757,96.00000000,70.00056459
758,96.00000000,70.00056459
759,96.00000000,71.00080874
760,96.00000000,71.00080874
761,96.00000000,72.00018311
762,96.00000000,73.00042726
763,96.00000000,73.00042726
764,96.00000000,73.00042726
765,96.00000000,73.00042726
766,96.00000000,72.00018311
767,96.00000000,73.00042726
768,96.00000000,73.00042726
769,96.00000000,72.00018311
770,96.00000000,72.00018311
771,96.00000000,71.00080874
772,96.00000000,70.00056459
773,96.00000000,68.00007630
774,96.00000000,68.00007630
775,96.00000000,68.00007630
776,96.00000000,69.00032044
777,96.00000000,74.00067141
778,96.00000000,74.00067141
779,96.00000000,76.00028993
780,96.00000000,76.00028993
781,96.00000000,76.00028993
782,96.00000000,75.00004578
783,96.00000000,73.00042726
784,96.00000000,72.00018311
785,96.00000000,72.00018311
786,96.00000000,72.00018311
787,96.00000000,71.00080874
788,96.00000000,71.00080874
789,96.00000000,71.00080874
790,96.00000000,71.00080874
791,96.00000000,71.00080874
792,96.00000000,72.00018311
793,96.00000000,72.00018311
794,96.00000000,72.00018311
795,96.00000000,71.00080874
796,96.00000000,71.00080874
797,96.00000000,72.00018311
798,96.00000000,72.00018311
799,96.00000000,72.00018311
800,96.00000000,72.00018311
801,96.00000000,73.00042726
802,96.00000000,73.00042726
803,96.00000000,72.00018311
804,96.00000000,72.00018311
805,96.00000000,72.00018311
806,96.00000000,71.00080874
807,96.00000000,70.00056459
808,96.00000000,70.00056459
809,96.00000000,68.00007630
810,96.00000000,68.00007630
811,96.00000000,68.00007630
812,95.00003052,68.00007630
813,95.00003052,67.00070193
814,95.00003052,67.00070193
815,95.00003052,67.00070193
816,95.00003052,68.00007630
817,95.00003052,68.00007630
818,95.00003052,68.00007630
819,95.00003052,69.00032044
820,95.00003052,69.00032044
821,95.00003052,71.00080874
822,95.00003052,71.00080874
823,95.00003052,72.00018311
824,95.00003052,72.00018311
825,95.00003052,72.00018311
826,95.00003052,72.00018311
827,95.00003052,71.00080874
828,95.00003052,71.00080874
829,95.00003052,69.00032044
830,95.00003052,69.00032044
831,95.00003052,69.00032044
832,95.00003052,69.00032044
833,96.00000000,68.00007630
834,96.00000000,67.00070193
835,96.00000000,68.00007630
836,96.00000000,68.00007630
837,95.00003052,67.00070193
838,95.00003052,66.00045778
839,95.00003052,65.00021363
840,95.00003052,66.00045778
841,95.00003052,65.00021363
842,95.00003052,65.00021363
843,96.00000000,65.00021363
844,96.00000000,66.00045778
845,96.00000000,66.00045778
846,96.00000000,65.00021363
847,96.00000000,66.00045778
848,96.00000000,66.00045778
849,96.00000000,66.00045778
850,95.00003052,66.00045778
851,95.00003052,67.00070193
852,95.00003052,68.00007630
853,95.00003052,67.00070193
854,95.00003052,68.00007630
855,95.00003052,69.00032044
856,96.00000000,68.00007630
857,96.00000000,68.00007630
858,96.00000000,70.00056459
859,96.00000000,71.00080874
860,96.00000000,71.00080874
861,96.00000000,73.00042726
862,96.00000000,74.00067141
863,96.00000000,73.00042726
864,96.00000000,73.00042726
865,96.00000000,72.00018311
866,96.00000000,72.00018311
867,96.00000000,72.00018311
868,96.00000000,72.00018311
869,96.00000000,72.00018311
870,96.00000000,72.00018311
871,96.00000000,72.00018311
872,96.00000000,77.00053407
873,96.00000000,77.00053407
874,96.00000000,80.00039674
875,96.00000000,81.00064089
876,95.00003052,82.00001526
877,95.00003052,79.00015259
878,95.00003052,77.00053407
879,95.00003052,76.00028993
880,95.00003052,74.00067141
881,95.00003052,75.00004578
882,95.00003052,74.00067141
883,95.00003052,74.00067141
884,95.00003052,74.00067141
885,95.00003052,75.00004578
886,95.00003052,74.00067141
887,95.00003052,74.00067141
888,95.00003052,73.00042726
889,95.00003052,72.00018311
890,95.00003052,71.00080874
891,95.00003052,69.00032044
892,95.00003052,68.00007630
893,95.00003052,67.00070193
894,95.00003052,66.00045778
895,95.00003052,66.00045778
896,95.00003052,66.00045778
897,96.00000000,66.00045778
898,96.00000000,66.00045778
899,96.00000000,65.00021363
900,96.00000000,66.00045778
901,96.00000000,66.00045778
902,96.00000000,66.00045778
903,96.00000000,65.00021363
904,96.00000000,66.00045778
905,95.00003052,66.00045778
906,95.00003052,65.00021363
907,95.00003052,65.00021363
908,95.00003052,65.00021363
909,95.00003052,66.00045778
910,95.00003052,66.00045778
911,96.00000000,66.00045778
912,96.00000000,66.00045778
913,96.00000000,67.00070193
914,96.00000000,67.00070193
915,96.00000000,67.00070193
916,96.00000000,67.00070193
917,96.00000000,67.00070193
918,96.00000000,65.00021363
919,96.00000000,65.00021363
920,96.00000000,66.00045778
921,96.00000000,65.00021363
922,96.00000000,65.00021363
923,96.00000000,66.00045778
924,96.00000000,67.00070193
925,96.00000000,67.00070193
926,96.00000000,67.00070193
927,96.00000000,67.00070193
928,96.00000000,67.00070193
929,96.00000000,67.00070193
930,96.00000000,75.00004578
931,96.00000000,75.00004578
932,97.99993896,75.00004578
933,97.99993896,75.00004578
934,97.99993896,75.00004578
935,97.99993896,75.00004578
936,96.99996948,75.00004578
937,96.99996948,76.00028993
938,96.99996948,75.00004578
939,96.99996948,75.00004578
940,96.99996948,75.00004578
941,96.99996948,75.00004578
942,96.99996948,75.00004578
943,96.99996948,76.00028993
944,96.99996948,76.00028993
945,96.99996948,79.00015259
946,96.99996948,79.00015259
947,96.99996948,88.99998474
948,97.99993896,90.99960326
949,97.99993896,91.99984741
950,96.99996948,90.99960326
951,96.99996948,87.99974059
952,96.99996948,86.99949644
953,96.99996948,86.00012207
954,96.99996948,86.00012207
955,96.99996948,86.00012207
956,97.99993896,86.99949644
957,96.99996948,86.99949644
958,96.99996948,86.99949644
959,96.99996948,87.99974059
960,96.99996948,87.99974059
961,96.99996948,87.99974059
962,96.99996948,87.99974059
963,96.99996948,87.99974059
964,96.99996948,87.99974059
965,96.99996948,87.99974059
966,96.99996948,87.99974059
967,96.99996948,87.99974059
968,96.99996948,87.99974059
969,96.99996948,87.99974059
970,97.99993896,87.99974059
971,97.99993896,87.99974059
972,96.99996948,87.99974059
973,96.99996948,87.99974059
974,96.99996948,87.99974059
975,96.99996948,87.99974059
976,96.99996948,87.99974059
977,96.00000000,86.99949644
978,96.00000000,83.00025941
979,96.99996948,83.00025941
980,96.99996948,80.00039674
981,96.99996948,80.00039674
982,96.00000000,81.00064089
983,96.00000000,81.00064089
984,96.00000000,81.00064089
985,96.00000000,82.00001526
986,96.00000000,82.00001526
987,96.00000000,82.00001526
988,96.00000000,82.00001526
989,96.00000000,82.00001526
990,96.00000000,82.00001526
991,96.00000000,82.00001526
992,96.00000000,82.00001526
993,96.00000000,82.00001526
994,96.00000000,82.00001526
995,96.00000000,82.00001526
996,96.00000000,82.00001526
997,96.00000000,82.00001526
998,96.00000000,82.00001526
999,96.99996948,82.00001526
1000,96.00000000,82.00001526
1001,97.99993896,82.00001526
1002,97.99993896,81.00064089
1003,97.99993896,80.00039674
1004,97.99993896,79.00015259
1005,97.99993896,79.00015259
1006,97.99993896,79.00015259
1007,97.99993896,79.00015259
1008,97.99993896,79.00015259
1009,97.99993896,79.00015259
1010,97.99993896,79.00015259
1011,97.99993896,81.00064089
1012,97.99993896,81.00064089
1013,97.99993896,82.00001526
1014,97.99993896,81.00064089
1015,97.99993896,81.00064089
1016,97.99993896,82.00001526
1017,97.99993896,82.00001526
1018,97.99993896,82.00001526
1019,99.00000000,83.00025941
1020,99.00000000,82.00001526
1021,99.00000000,82.00001526
1022,99.00000000,82.00001526
1023,99.00000000,82.00001526
1024,97.99993896,82.00001526
1025,97.99993896,82.00001526
1026,99.00000000,82.00001526
1027,99.00000000,82.00001526
1028,97.99993896,82.00001526
1029,97.99993896,83.00025941
1030,97.99993896,83.00025941
1031,97.99993896,81.00064089
1032,97.99993896,79.00015259
1033,97.99993896,77.00053407
1034,97.99993896,76.00028993
1035,97.99993896,75.00004578
1036,97.99993896,75.00004578
1037,97.99993896,76.00028993
1038,97.99993896,78.00077822
1039,97.99993896,78.00077822
1040,97.99993896,79.00015259
1041,97.99993896,79.00015259
1042,97.99993896,80.00039674
1043,97.99993896,80.00039674
1044,97.99993896,80.00039674
1045,97.99993896,80.00039674
1046,97.99993896,80.00039674
1047,97.99993896,81.00064089
1048,97.99993896,81.00064089
1049,99.00000000,81.00064089
1050,99.00000000,82.00001526
1051,97.99993896,82.00001526
1052,99.00000000,81.00064089
1053,97.99993896,79.00015259
1054,97.99993896,77.00053407
1055,97.99993896,77.00053407
1056,97.99993896,77.00053407
1057,97.99993896,77.00053407
1058,97.99993896,77.00053407
1059,97.99993896,77.00053407
1060,97.99993896,77.00053407
1061,97.99993896,77.00053407
1062,97.99993896,78.00077822
1063,97.99993896,79.00015259
1064,97.99993896,80.00039674
1065,97.99993896,80.00039674
1066,97.99993896,80.00039674
1067,97.99993896,78.00077822
1068,97.99993896,77.00053407
1069,97.99993896,74.00067141
1070,97.99993896,72.00018311
1071,97.99993896,74.00067141
1072,97.99993896,74.00067141
1073,96.99996948,75.00004578
1074,96.99996948,75.00004578
1075,96.99996948,75.00004578
1076,96.99996948,75.00004578
1077,96.99996948,75.00004578
1078,97.99993896,75.00004578
1079,97.99993896,75.00004578
1080,97.99993896,73.00042726
1081,97.99993896,72.00018311
1082,97.99993896,71.00080874
1083,97.99993896,70.00056459
1084,97.99993896,70.00056459
1085,97.99993896,70.00056459
1086,97.99993896,70.00056459
1087,97.99993896,72.00018311
1088,97.99993896,72.00018311
1089,97.99993896,75.00004578
1090,97.99993896,77.00053407
1091,97.99993896,77.00053407
1092,97.99993896,79.00015259
1093,97.99993896,79.00015259
1094,97.99993896,79.00015259
1095,97.99993896,79.00015259
1096,97.99993896,79.00015259
1097,97.99993896,80.00039674
1098,97.99993896,79.00015259
1099,97.99993896,77.00053407
1100,97.99993896,76.00028993
1101,96.99996948,76.00028993
1102,97.99993896,76.00028993
1103,96.99996948,75.00004578
1104,96.99996948,76.00028993
1105,96.99996948,77.00053407
1106,96.99996948,77.00053407
1107,96.99996948,77.00053407
1108,96.99996948,77.00053407
1109,96.99996948,78.00077822
1110,96.99996948,78.00077822
1111,96.99996948,77.00053407
1112,96.99996948,77.00053407
1113,96.99996948,77.00053407
1114,96.99996948,76.00028993
1115,96.99996948,76.00028993
1116,96.99996948,75.00004578
1117,96.99996948,76.00028993
1118,96.99996948,76.00028993
1119,96.99996948,76.00028993
1120,96.99996948,76.00028993
1121,96.99996948,76.00028993
1122,96.99996948,76.00028993
1123,97.99993896,76.00028993
1124,97.99993896,76.00028993
1125,97.99993896,76.00028993
1126,97.99993896,76.00028993
1127,97.99993896,79.00015259
1128,97.99993896,79.00015259
1129,97.99993896,80.00039674
1130,96.99996948,80.00039674
1131,96.99996948,79.00015259
1132,96.99996948,79.00015259
1133,96.99996948,78.00077822
1134,96.99996948,77.00053407
1135,96.99996948,77.00053407
1136,96.99996948,76.00028993
1137,96.99996948,77.00053407
1138,96.99996948,77.00053407
1139,96.99996948,78.00077822
1140,96.99996948,78.00077822
1141,96.99996948,78.00077822
1142,96.99996948,78.00077822
1143,96.99996948,78.00077822
1144,96.99996948,77.00053407
1145,96.99996948,76.00028993
1146,96.99996948,76.00028993
1147,96.99996948,76.00028993
1148,96.99996948,77.00053407
1149,96.99996948,79.00015259
1150,96.99996948,78.00077822
1151,96.99996948,77.00053407
1152,96.99996948,77.00053407
1153,96.99996948,76.00028993
1154,96.00000000,76.00028993
1155,96.00000000,76.00028993
1156,96.99996948,81.00064089
1157,96.99996948,81.00064089
1158,96.99996948,81.00064089
1159,96.99996948,81.00064089
1160,96.99996948,81.00064089
1161,96.99996948,82.00001526
1162,96.99996948,82.00001526
1163,96.99996948,81.00064089
1164,96.99996948,82.00001526
1165,96.99996948,82.00001526
1166,96.99996948,84.00050356
1167,96.99996948,84.00050356
1168,96.99996948,79.00015259
1169,96.99996948,76.00028993
1170,96.99996948,74.00067141
1171,96.99996948,72.00018311
1172,97.99993896,72.00018311
1173,96.99996948,71.00080874
1174,96.99996948,71.00080874
1175,96.99996948,71.00080874
1176,96.99996948,71.00080874
1177,96.99996948,70.00056459
1178,96.99996948,70.00056459
1179,97.99993896,69.00032044
1180,97.99993896,69.00032044
1181,97.99993896,69.00032044
1182,97.99993896,67.00070193
1183,97.99993896,67.00070193
1184,97.99993896,68.00007630
1185,97.99993896,68.00007630
1186,96.99996948,70.00056459
1187,96.99996948,72.00018311
1188,96.99996948,72.00018311
1189,96.99996948,74.00067141
1190,96.99996948,74.00067141
1191,96.99996948,75.00004578
1192,96.99996948,75.00004578
1193,96.99996948,73.00042726
1194,96.99996948,74.00067141
1195,96.99996948,74.00067141
1196,96.99996948,74.00067141
1197,96.99996948,74.00067141
1198,96.99996948,74.00067141
1199,96.99996948,74.00067141
1200,96.99996948,74.00067141
1201,96.99996948,75.00004578
1202,96.99996948,78.00077822
1203,96.00000000,78.00077822
1204,96.00000000,79.00015259
1205,96.00000000,82.00001526
1206,96.99996948,83.00025941
1207,96.99996948,84.00050356
1208,96.99996948,83.00025941
1209,96.99996948,83.00025941
1210,96.99996948,82.00001526
1211,96.99996948,82.00001526
1212,96.99996948,80.00039674
1213,97.99993896,79.00015259
1214,97.99993896,77.00053407
1215,97.99993896,77.00053407
1216,97.99993896,77.00053407
1217,97.99993896,77.00053407
1218,97.99993896,79.00015259
1219,97.99993896,79.00015259
1220,97.99993896,83.00025941
1221,97.99993896,85.00074770
1222,97.99993896,85.00074770
1223,97.99993896,85.00074770
1224,97.99993896,85.00074770
1225,97.99993896,85.00074770
1226,97.99993896,84.00050356
1227,97.99993896,82.00001526
1228,97.99993896,82.00001526
1229,97.99993896,80.00039674
1230,97.99993896,80.00039674
1231,97.99993896,80.00039674
1232,96.99996948,79.00015259
1233,96.99996948,77.00053407
1234,96.99996948,77.00053407
1235,97.99993896,76.00028993
1236,96.99996948,76.00028993
1237,96.99996948,76.00028993
1238,96.99996948,77.00053407
1239,96.00000000,79.00015259
1240,96.00000000,80.00039674
1241,96.00000000,80.00039674
1242,96.00000000,81.00064089
1243,96.00000000,80.00039674
1244,96.00000000,80.00039674
1245,96.00000000,80.00039674
1246,96.00000000,80.00039674
1247,96.00000000,80.00039674
1248,96.99996948,79.00015259
1249,96.00000000,79.00015259
1250,96.00000000,79.00015259
1251,96.00000000,79.00015259
1252,96.99996948,79.00015259
1253,96.00000000,80.00039674
1254,96.00000000,80.00039674
1255,96.00000000,80.00039674
1256,97.99993896,80.00039674
1257,97.99993896,79.00015259
1258,97.99993896,79.00015259
1259,97.99993896,79.00015259
1260,96.99996948,80.00039674
1261,97.99993896,79.00015259
1262,96.99996948,78.00077822
1263,96.99996948,79.00015259
1264,96.99996948,79.00015259
1265,96.99996948,79.00015259
1266,96.99996948,79.00015259
1267,96.99996948,78.00077822
1268,96.99996948,77.00053407
1269,97.99993896,77.00053407
1270,97.99993896,77.00053407
1271,97.99993896,77.00053407
1272,96.99996948,77.00053407
1273,96.99996948,77.00053407
1274,96.99996948,77.00053407
1275,96.99996948,75.00004578
1276,97.99993896,74.00067141
1277,97.99993896,74.00067141
1278,97.99993896,74.00067141
1279,97.99993896,75.00004578
1280,96.99996948,75.00004578
1281,96.99996948,77.00053407
1282,96.99996948,77.00053407
1283,96.99996948,77.00053407
1284,96.99996948,77.00053407
1285,97.99993896,77.00053407
1286,97.99993896,77.00053407
1287,97.99993896,77.00053407
1288,97.99993896,77.00053407
1289,97.99993896,77.00053407
1290,97.99993896,77.00053407
1291,97.99993896,77.00053407
1292,97.99993896,78.00077822
1293,97.99993896,81.00064089
1294,96.99996948,81.00064089
1295,96.99996948,81.00064089
1296,96.99996948,81.00064089
1297,96.99996948,81.00064089
1298,96.99996948,82.00001526
1299,96.99996948,82.00001526
1300,96.99996948,82.00001526
1301,96.99996948,82.00001526
1302,96.99996948,81.00064089
1303,96.99996948,80.00039674
1304,96.99996948,79.00015259
1305,96.99996948,79.00015259
1306,96.99996948,79.00015259
1307,96.99996948,79.00015259
1308,96.99996948,79.00015259
1309,96.99996948,79.00015259
1310,96.99996948,79.00015259
1311,96.99996948,79.00015259
1312,96.99996948,79.00015259
1313,99.00000000,79.00015259
1314,99.00000000,79.00015259
1315,99.00000000,79.00015259
1316,99.00000000,79.00015259
1317,99.00000000,79.00015259
1318,99.00000000,79.00015259
1319,99.00000000,79.00015259
1320,99.00000000,79.00015259
1321,99.00000000,79.00015259
1322,99.00000000,79.00015259
1323,99.00000000,79.00015259
1324,97.99993896,79.00015259
1325,97.99993896,78.00077822
1326,97.99993896,80.00039674
1327,97.99993896,78.00077822
1328,97.99993896,77.00053407
1329,97.99993896,75.00004578
1330,97.99993896,73.00042726
1331,97.99993896,72.00018311
1332,97.99993896,71.00080874
1333,97.99993896,70.00056459
1334,97.99993896,70.00056459
1335,97.99993896,71.00080874
1336,96.99996948,70.00056459
1337,96.99996948,69.00032044
1338,96.99996948,68.00007630
1339,96.99996948,67.00070193
1340,96.99996948,67.00070193
1341,97.99993896,69.00032044
1342,97.99993896,75.00004578
1343,96.99996948,75.00004578
1344,96.99996948,78.00077822
1345,96.99996948,79.00015259
1346,96.99996948,78.00077822
1347,96.99996948,74.00067141
1348,96.99996948,73.00042726
1349,96.99996948,71.00080874
1350,96.99996948,70.00056459
1351,96.99996948,69.00032044
1352,96.99996948,69.00032044
1353,96.99996948,69.00032044
1354,96.99996948,69.00032044
1355,96.99996948,68.00007630
1356,96.99996948,68.00007630
1357,96.99996948,67.00070193
1358,96.99996948,66.00045778
1359,96.99996948,65.00021363
1360,96.99996948,65.00021363
1361,96.99996948,65.00021363
1362,96.99996948,66.00045778
1363,96.99996948,66.00045778
1364,96.99996948,66.00045778
1365,96.99996948,67.00070193
1366,96.00000000,67.00070193
1367,96.00000000,67.00070193
1368,96.00000000,66.00045778
1369,96.00000000,66.00045778
1370,96.00000000,65.00021363
1371,96.00000000,65.00021363
1372,96.00000000,65.00021363
1373,96.00000000,66.00045778
1374,96.00000000,65.00021363
1375,96.00000000,65.00021363
1376,96.00000000,65.00021363
1377,96.00000000,65.00021363
1378,96.00000000,65.00021363
1379,96.00000000,64.00083926
1380,96.00000000,64.00083926
1381,96.00000000,65.00021363
1382,96.00000000,64.00083926
1383,96.00000000,64.00083926
1384,96.00000000,64.00083926
1385,96.00000000,64.00083926
1386,96.00000000,63.00059511
1387,96.00000000,63.00059511
1388,96.00000000,64.00083926
1389,96.00000000,63.00059511
1390,96.00000000,63.00059511
1391,96.00000000,63.00059511
1392,96.00000000,63.00059511
1393,96.00000000,63.00059511
1394,96.00000000,62.00035096
1395,96.00000000,62.00035096
1396,96.00000000,62.00035096
1397,96.00000000,62.00035096
1398,96.00000000,62.00035096
1399,96.00000000,61.00010681
1400,96.00000000,62.00035096
1401,96.00000000,64.00083926
1402,96.00000000,67.00070193
1403,96.00000000,67.00070193
1404,96.00000000,69.00032044
1405,96.00000000,67.00070193
1406,96.00000000,67.00070193
1407,96.00000000,65.00021363
1408,96.00000000,64.00083926
1409,96.00000000,62.00035096
1410,96.00000000,61.00010681
1411,96.00000000,61.00010681
1412,96.00000000,60.00073244
1413,96.00000000,61.00010681
1414,96.00000000,61.00010681
1415,96.00000000,62.00035096
1416,96.00000000,63.00059511
1417,96.00000000,63.00059511
1418,96.00000000,63.00059511
1419,96.00000000,63.00059511
1420,96.00000000,63.00059511
1421,96.00000000,62.00035096
1422,96.00000000,62.00035096
1423,96.00000000,62.00035096
1424,96.00000000,62.00035096
1425,96.00000000,62.00035096
1426,96.00000000,62.00035096
1427,96.00000000,63.00059511
1428,96.00000000,63.00059511
1429,96.00000000,63.00059511
1430,96.00000000,62.00035096
1431,96.00000000,63.00059511
1432,96.00000000,63.00059511
1433,96.00000000,63.00059511
1434,96.00000000,62.00035096
1435,96.00000000,62.00035096
1436,96.00000000,63.00059511
1437,96.00000000,63.00059511
1438,96.00000000,63.00059511
1439,96.00000000,63.00059511
1440,96.00000000,63.00059511
1441,96.00000000,63.00059511
1442,96.00000000,63.00059511
1443,96.00000000,63.00059511
1444,96.00000000,63.00059511
1445,96.00000000,62.00035096
1446,96.00000000,62.00035096
1447,96.00000000,62.00035096
1448,96.00000000,62.00035096
1449,96.00000000,62.00035096
1450,96.00000000,63.00059511
1451,96.00000000,63.00059511
1452,96.00000000,64.00083926
1453,96.00000000,64.00083926
1454,95.00003052,65.00021363
1455,95.00003052,65.00021363
1456,95.00003052,65.00021363
1457,95.00003052,65.00021363
1458,96.00000000,65.00021363
1459,96.00000000,65.00021363
1460,96.00000000,65.00021363
1461,95.00003052,65.00021363
1462,95.00003052,66.00045778
1463,95.00003052,67.00070193
1464,95.00003052,67.00070193
1465,95.00003052,67.00070193
1466,95.00003052,67.00070193
1467,96.00000000,68.00007630
1468,96.00000000,67.00070193
1469,95.00003052,67.00070193
1470,95.00003052,67.00070193
1471,95.00003052,67.00070193
1472,95.00003052,67.00070193
1473,95.00003052,67.00070193
1474,95.00003052,68.00007630
1475,95.00003052,67.00070193
1476,96.00000000,66.00045778
1477,96.00000000,66.00045778
1478,96.00000000,67.00070193
1479,96.00000000,67.00070193
1480,96.00000000,67.00070193
1481,96.00000000,67.00070193
1482,96.00000000,67.00070193
1483,96.00000000,67.00070193
1484,96.00000000,67.00070193
1485,96.00000000,66.00045778
1486,96.00000000,66.00045778
1487,96.00000000,65.00021363
1488,96.00000000,66.00045778
1489,96.00000000,65.00021363
1490,96.00000000,65.00021363
1491,96.00000000,65.00021363
1492,96.00000000,65.00021363
1493,96.00000000,65.00021363
1494,96.00000000,65.00021363
1495,96.00000000,65.00021363
1496,96.00000000,65.00021363
1497,96.00000000,64.00083926
1498,96.00000000,65.00021363
1499,96.00000000,65.00021363
1500,96.00000000,64.00083926
1501,96.00000000,64.00083926
1502,96.00000000,64.00083926
1503,96.00000000,63.00059511
1504,96.00000000,63.00059511
1505,96.00000000,63.00059511
1506,96.00000000,63.00059511
1507,96.00000000,63.00059511
1508,96.00000000,63.00059511
1509,96.00000000,63.00059511
1510,96.00000000,63.00059511
1511,96.00000000,63.00059511
1512,96.00000000,63.00059511
1513,96.00000000,62.00035096
1514,96.00000000,62.00035096
1515,96.00000000,63.00059511
1516,96.00000000,62.00035096
1517,96.00000000,63.00059511
1518,96.00000000,63.00059511
1519,96.00000000,63.00059511
1520,96.00000000,64.00083926
1521,96.00000000,64.00083926
1522,96.00000000,64.00083926
1523,96.00000000,65.00021363
1524,96.00000000,65.00021363
1525,96.00000000,67.00070193
1526,96.00000000,67.00070193
1527,96.00000000,67.00070193
1528,95.00003052,68.00007630
1529,95.00003052,68.00007630
1530,95.00003052,68.00007630
1531,95.00003052,70.00056459
1532,95.00003052,71.00080874
1533,95.00003052,71.00080874
1534,95.00003052,74.00067141
1535,95.00003052,78.00077822
1536,95.00003052,78.00077822
1537,95.00003052,81.00064089
1538,95.00003052,81.00064089
1539,95.00003052,81.00064089
1540,95.00003052,80.00039674
1541,95.00003052,78.00077822
1542,95.00003052,77.00053407
1543,95.00003052,77.00053407
1544,95.00003052,76.00028993
1545,95.00003052,75.00004578
1546,95.00003052,75.00004578
1547,95.00003052,76.00028993
1548,96.00000000,75.00004578
1549,96.00000000,75.00004578
1550,96.00000000,74.00067141
1551,96.00000000,73.00042726
1552,96.00000000,71.00080874
1553,96.00000000,69.00032044
1554,96.00000000,69.00032044
1555,96.00000000,69.00032044
1556,96.00000000,68.00007630
1557,96.00000000,69.00032044
1558,96.00000000,68.00007630
1559,96.00000000,69.00032044
1560,95.00003052,69.00032044
1561,95.00003052,69.00032044
1562,96.00000000,69.00032044
1563,96.00000000,70.00056459
1564,96.00000000,69.00032044
1565,96.00000000,69.00032044
1566,96.00000000,68.00007630
1567,96.00000000,68.00007630
1568,96.00000000,68.00007630
1569,96.00000000,67.00070193
1570,96.00000000,66.00045778
1571,96.00000000,67.00070193
1572,96.00000000,66.00045778
1573,96.00000000,67.00070193
1574,96.00000000,66.00045778
1575,96.00000000,66.00045778
1576,96.00000000,66.00045778
1577,96.00000000,66.00045778
1578,96.00000000,65.00021363
1579,96.00000000,65.00021363
1580,96.00000000,65.00021363
1581,96.00000000,65.00021363
1582,96.00000000,65.00021363
1583,96.00000000,65.00021363
1584,96.00000000,66.00045778
1585,96.00000000,66.00045778
1586,96.00000000,67.00070193
1587,96.00000000,68.00007630
1588,96.00000000,67.00070193
1589,96.00000000,67.00070193
1590,96.00000000,67.00070193
1591,96.00000000,66.00045778
1592,96.00000000,65.00021363
1593,96.00000000,65.00021363
1594,96.00000000,65.00021363
1595,96.00000000,65.00021363
1596,96.99996948,64.00083926
1597,96.00000000,64.00083926
1598,96.99996948,64.00083926
1599,96.99996948,64.00083926
1600,96.99996948,63.00059511
1601,96.99996948,63.00059511
1602,96.99996948,63.00059511
1603,96.99996948,64.00083926
1604,96.99996948,63.00059511
1605,96.99996948,63.00059511
1606,96.99996948,63.00059511
1607,96.99996948,63.00059511
1608,96.00000000,63.00059511
1609,96.00000000,63.00059511
1610,96.00000000,62.00035096
1611,96.00000000,63.00059511
1612,96.00000000,63.00059511
1613,96.00000000,63.00059511
1614,96.00000000,63.00059511
1615,96.00000000,63.00059511
1616,96.00000000,64.00083926
1617,96.00000000,64.00083926
1618,96.00000000,64.00083926
1619,96.00000000,64.00083926
1620,96.00000000,64.00083926
1621,96.00000000,64.00083926
1622,96.00000000,64.00083926
1623,96.00000000,65.00021363
1624,96.00000000,64.00083926
1625,96.00000000,64.00083926
1626,96.00000000,64.00083926
1627,96.00000000,63.00059511
1628,96.00000000,63.00059511
1629,96.00000000,64.00083926
1630,96.00000000,64.00083926
1631,96.00000000,65.00021363
1632,96.00000000,65.00021363
1633,96.00000000,65.00021363
1634,96.00000000,65.00021363
1635,96.00000000,65.00021363
1636,96.00000000,65.00021363
1637,96.00000000,67.00070193
1638,96.00000000,69.00032044
1639,96.00000000,69.00032044
1640,96.00000000,79.00015259
1641,96.99996948,79.00015259
1642,97.99993896,81.00064089
1643,97.99993896,81.00064089
1644,97.99993896,81.00064089
1645,97.99993896,81.00064089
1646,97.99993896,81.00064089
1647,97.99993896,81.00064089
1648,97.99993896,81.00064089
1649,97.99993896,81.00064089
1650,97.99993896,81.00064089
1651,97.99993896,81.00064089
1652,97.99993896,81.00064089
1653,97.99993896,81.00064089
1654,97.99993896,81.00064089
1655,97.99993896,81.00064089
1656,97.99993896,81.00064089
1657,97.99993896,81.00064089
1658,97.99993896,81.00064089
1659,97.99993896,81.00064089
1660,97.99993896,81.00064089
1661,97.99993896,81.00064089
1662,97.99993896,81.00064089
1663,97.99993896,81.00064089
1664,97.99993896,81.00064089
1665,97.99993896,81.00064089
1666,97.99993896,81.00064089
1667,97.99993896,81.00064089
1668,97.99993896,81.00064089
1669,97.99993896,83.00025941
1670,97.99993896,83.00025941
1671,97.99993896,83.00025941
1672,97.99993896,83.00025941
1673,97.99993896,82.00001526
1674,97.99993896,78.00077822
1675,97.99993896,76.00028993
1676,97.99993896,76.00028993
1677,97.99993896,74.00067141
1678,97.99993896,74.00067141
1679,97.99993896,74.00067141
1680,97.99993896,75.00004578
1681,97.99993896,75.00004578
1682,97.99993896,76.00028993
1683,97.99993896,75.00004578
1684,97.99993896,74.00067141
1685,97.99993896,73.00042726
1686,96.99996948,72.00018311
1687,96.99996948,72.00018311
1688,96.99996948,72.00018311
1689,96.99996948,71.00080874
1690,96.99996948,71.00080874
1691,96.99996948,71.00080874
1692,96.99996948,71.00080874
1693,96.99996948,72.00018311
1694,96.99996948,72.00018311
1695,96.99996948,72.00018311
1696,96.99996948,72.00018311
1697,96.99996948,75.00004578
1698,96.99996948,78.00077822
1699,96.99996948,84.00050356
1700,96.00000000,84.00050356
1701,96.00000000,86.99949644
1702,96.00000000,85.00074770
1703,96.00000000,84.00050356
1704,96.00000000,82.00001526
1705,96.99996948,78.00077822
1706,96.00000000,76.00028993
1707,96.99996948,73.00042726
1708,96.99996948,71.00080874
1709,96.99996948,69.00032044
1710,96.99996948,67.00070193
1711,96.99996948,67.00070193
1712,96.99996948,66.00045778
1713,96.99996948,65.00021363
1714,96.99996948,64.00083926
1715,96.99996948,63.00059511
1716,96.99996948,63.00059511
1717,96.99996948,64.00083926
1718,96.99996948,64.00083926
1719,96.99996948,65.00021363
1720,96.99996948,65.00021363
1721,96.99996948,66.00045778
1722,96.99996948,66.00045778
1723,96.99996948,66.00045778
1724,96.99996948,66.00045778
1725,96.99996948,66.00045778
1726,96.99996948,68.00007630
1727,96.99996948,68.00007630
1728,96.99996948,68.00007630
1729,96.99996948,68.00007630
1730,96.99996948,69.00032044
1731,96.99996948,70.00056459
1732,96.99996948,72.00018311
1733,96.99996948,72.00018311
1734,96.99996948,72.00018311
1735,96.99996948,72.00018311
1736,96.99996948,71.00080874
1737,97.99993896,70.00056459
1738,97.99993896,68.00007630
1739,97.99993896,67.00070193
1740,97.99993896,66.00045778
1741,97.99993896,66.00045778
1742,97.99993896,65.00021363
1743,97.99993896,64.00083926
1744,97.99993896,64.00083926
1745,97.99993896,64.00083926
1746,97.99993896,63.00059511
1747,97.99993896,63.00059511
1748,97.99993896,63.00059511
1749,97.99993896,63.00059511
1750,97.99993896,62.00035096
1751,97.99993896,63.00059511
1752,97.99993896,63.00059511
1753,97.99993896,63.00059511
1754,96.99996948,63.00059511
1755,96.99996948,64.00083926
1756,96.99996948,64.00083926
1757,96.99996948,64.00083926
1758,96.99996948,64.00083926
1759,96.99996948,64.00083926
1760,96.99996948,65.00021363
1761,96.99996948,64.00083926
1762,96.99996948,64.00083926
1763,96.99996948,65.00021363
1764,96.99996948,64.00083926
1765,96.99996948,64.00083926
1766,96.99996948,64.00083926
1767,96.99996948,64.00083926
1768,96.99996948,63.00059511
1769,96.99996948,63.00059511
1770,96.99996948,63.00059511
1771,96.99996948,64.00083926
1772,96.99996948,65.00021363
1773,96.99996948,66.00045778
1774,96.99996948,66.00045778
1775,96.99996948,66.00045778
1776,96.00000000,66.00045778
1777,96.00000000,66.00045778
1778,96.00000000,66.00045778
1779,96.00000000,66.00045778
1780,96.99996948,66.00045778
1781,96.99996948,66.00045778
1782,96.99996948,67.00070193
1783,96.99996948,67.00070193
1784,96.99996948,67.00070193
1785,96.99996948,66.00045778
1786,96.99996948,66.00045778
1787,96.99996948,66.00045778
1788,96.99996948,66.00045778
1789,96.99996948,66.00045778
1790,96.99996948,67.00070193
1791,96.99996948,68.00007630
1792,96.99996948,68.00007630
1793,96.99996948,69.00032044
1794,96.99996948,70.00056459
1795,96.99996948,70.00056459
1796,96.99996948,70.00056459
1797,96.99996948,70.00056459
1798,96.99996948,69.00032044
1799,96.99996948,68.00007630
1800,96.99996948,68.00007630
1801,96.99996948,68.00007630
1802,96.99996948,67.00070193
1803,96.99996948,68.00007630
1804,96.99996948,68.00007630
1805,96.99996948,67.00070193
1806,96.99996948,67.00070193
1807,96.99996948,67.00070193
1808,96.99996948,66.00045778
1809,96.99996948,66.00045778
1810,96.99996948,64.00083926
1811,96.99996948,64.00083926
1812,96.99996948,64.00083926
1813,96.00000000,64.00083926
1814,96.00000000,64.00083926
1815,96.00000000,65.00021363
1816,96.00000000,66.00045778
1817,96.00000000,68.00007630
1818,96.00000000,68.00007630
1819,96.00000000,68.00007630
1820,96.00000000,68.00007630
1821,96.00000000,70.00056459
1822,96.00000000,69.00032044
1823,96.00000000,69.00032044
1824,96.00000000,69.00032044
1825,96.00000000,69.00032044
1826,96.00000000,69.00032044
1827,96.99996948,69.00032044
1828,96.99996948,70.00056459
1829,96.99996948,70.00056459
1830,96.99996948,70.00056459
1831,96.99996948,71.00080874
1832,96.99996948,71.00080874
1833,96.99996948,71.00080874
1834,96.99996948,71.00080874
1835,96.00000000,70.00056459
1836,96.99996948,70.00056459
1837,96.99996948,69.00032044
1838,96.99996948,69.00032044
1839,96.99996948,69.00032044
1840,96.99996948,69.00032044
1841,96.99996948,69.00032044
1842,96.99996948,70.00056459
1843,96.99996948,70.00056459
1844,96.99996948,69.00032044
1845,96.99996948,70.00056459
1846,96.99996948,70.00056459
1847,96.99996948,70.00056459
1848,96.99996948,70.00056459
1849,96.99996948,71.00080874
1850,96.99996948,71.00080874
1851,96.99996948,70.00056459
1852,96.99996948,70.00056459
1853,96.99996948,70.00056459
1854,96.99996948,69.00032044
1855,96.99996948,68.00007630
1856,96.99996948,68.00007630
1857,96.99996948,67.00070193
1858,96.99996948,67.00070193
1859,96.99996948,68.00007630
1860,96.99996948,68.00007630
1861,96.99996948,68.00007630
1862,96.00000000,69.00032044
1863,96.00000000,69.00032044
1864,96.00000000,69.00032044
1865,96.00000000,69.00032044
1866,96.00000000,69.00032044
1867,96.00000000,70.00056459
1868,96.00000000,70.00056459
1869,96.00000000,72.00018311
1870,96.00000000,73.00042726
1871,96.00000000,74.00067141
1872,96.00000000,74.00067141
1873,96.00000000,75.00004578
1874,96.99996948,73.00042726
1875,96.99996948,72.00018311
1876,96.99996948,73.00042726
1877,96.99996948,71.00080874
1878,96.99996948,70.00056459
1879,96.99996948,70.00056459
1880,96.99996948,70.00056459
1881,96.99996948,69.00032044
1882,96.00000000,68.00007630
1883,96.00000000,68.00007630
1884,96.00000000,67.00070193
1885,96.99996948,67.00070193
1886,96.99996948,66.00045778
1887,96.99996948,66.00045778
1888,96.99996948,65.00021363
1889,96.99996948,65.00021363
1890,96.99996948,65.00021363
1891,96.99996948,65.00021363
1892,96.99996948,66.00045778
1893,96.99996948,65.00021363
1894,96.00000000,66.00045778
1895,96.00000000,67.00070193
1896,96.00000000,66.00045778
1897,96.00000000,66.00045778
1898,96.00000000,67.00070193
1899,96.99996948,67.00070193
1900,96.99996948,66.00045778
1901,96.99996948,66.00045778
1902,96.99996948,66.00045778
1903,96.00000000,66.00045778
1904,96.99996948,65.00021363
1905,96.99996948,65.00021363
1906,96.99996948,66.00045778
1907,96.99996948,66.00045778
1908,96.99996948,67.00070193
1909,96.99996948,68.00007630
1910,96.99996948,68.00007630
1911,96.00000000,69.00032044
1912,96.00000000,69.00032044
1913,96.00000000,69.00032044
1914,96.00000000,69.00032044
1915,96.00000000,69.00032044
1916,96.00000000,69.00032044
1917,96.00000000,69.00032044
1918,96.99996948,69.00032044
1919,96.00000000,69.00032044
1920,96.00000000,69.00032044
1921,96.00000000,69.00032044
1922,96.99996948,69.00032044
1923,96.99996948,68.00007630
1924,96.99996948,66.00045778
1925,96.99996948,66.00045778
1926,97.99993896,65.00021363
1927,96.99996948,65.00021363
1928,97.99993896,65.00021363
1929,96.99996948,65.00021363
1930,96.99996948,65.00021363
1931,96.99996948,65.00021363
1932,96.99996948,67.00070193
1933,96.99996948,68.00007630
1934,96.99996948,69.00032044
1935,96.99996948,69.00032044
1936,96.99996948,69.00032044
1937,96.99996948,69.00032044
1938,96.99996948,69.00032044
1939,96.99996948,69.00032044
1940,96.99996948,69.00032044
1941,96.99996948,69.00032044
1942,96.99996948,68.00007630
1943,96.99996948,68.00007630
1944,96.99996948,67.00070193
1945,96.99996948,67.00070193
1946,96.99996948,67.00070193
1947,96.99996948,67.00070193
1948,96.99996948,69.00032044
1949,96.99996948,69.00032044
1950,96.99996948,70.00056459
1951,96.99996948,70.00056459
1952,96.99996948,71.00080874
1953,96.99996948,71.00080874
1954,96.99996948,71.00080874
1955,96.99996948,70.00056459
1956,96.99996948,69.00032044
1957,96.99996948,69.00032044
1958,96.99996948,67.00070193
1959,96.99996948,67.00070193
1960,96.99996948,67.00070193
1961,96.99996948,67.00070193
1962,96.99996948,67.00070193
1963,96.99996948,67.00070193
1964,96.99996948,68.00007630
1965,96.99996948,68.00007630
1966,96.99996948,68.00007630
1967,96.99996948,69.00032044
1968,96.99996948,69.00032044
1969,96.00000000,70.00056459
1970,96.00000000,70.00056459
1971,96.00000000,70.00056459
1972,96.00000000,70.00056459
1973,96.00000000,70.00056459
1974,96.99996948,70.00056459
1975,96.00000000,71.00080874
1976,96.00000000,71.00080874
1977,96.00000000,71.00080874
1978,96.00000000,71.00080874
1979,96.00000000,72.00018311
1980,96.00000000,71.00080874
1981,96.00000000,71.00080874
1982,96.00000000,71.00080874
1983,96.00000000,70.00056459
1984,96.00000000,70.00056459
1985,96.00000000,70.00056459
1986,96.00000000,69.00032044
1987,97.99993896,74.00067141
1988,97.99993896,74.00067141
1989,97.99993896,75.00004578
1990,97.99993896,76.00028993
1991,97.99993896,77.00053407
1992,97.99993896,77.00053407
1993,96.99996948,77.00053407
1994,97.99993896,77.00053407
1995,96.99996948,76.00028993
1996,96.99996948,77.00053407
1997,96.99996948,78.00077822
1998,96.99996948,77.00053407
1999,96.99996948,77.00053407
2000,97.99993896,77.00053407
2001,97.99993896,72.00018311
2002,97.99993896,70.00056459
2003,97.99993896,68.00007630
2004,97.99993896,68.00007630
2005,97.99993896,68.00007630
2006,97.99993896,67.00070193
2007,97.99993896,67.00070193
2008,97.99993896,67.00070193
2009,97.99993896,66.00045778
2010,97.99993896,65.00021363
2011,97.99993896,65.00021363
2012,97.99993896,63.00059511
2013,97.99993896,63.00059511
2014,97.99993896,62.00035096
2015,97.99993896,63.00059511
2016,97.99993896,63.00059511
2017,97.99993896,64.00083926
2018,97.99993896,64.00083926
2019,97.99993896,64.00083926
2020,97.99993896,65.00021363
2021,97.99993896,66.00045778
2022,97.99993896,65.00021363
2023,97.99993896,64.00083926
2024,97.99993896,64.00083926
2025,97.99993896,64.00083926
2026,97.99993896,63.00059511
2027,96.99996948,63.00059511
2028,96.99996948,64.00083926
2029,96.99996948,64.00083926
2030,96.99996948,64.00083926
2031,96.99996948,64.00083926
2032,97.99993896,64.00083926
2033,96.99996948,64.00083926
2034,96.99996948,65.00021363
2035,97.99993896,66.00045778
2036,96.99996948,66.00045778
2037,96.99996948,67.00070193
2038,96.99996948,67.00070193
2039,96.99996948,67.00070193
2040,96.99996948,67.00070193
2041,96.99996948,68.00007630
2042,96.99996948,68.00007630
2043,96.99996948,68.00007630
2044,96.99996948,69.00032044
2045,96.99996948,69.00032044
2046,96.99996948,70.00056459
2047,96.99996948,71.00080874
2048,96.99996948,71.00080874
2049,96.99996948,70.00056459
2050,96.99996948,70.00056459
2051,96.99996948,70.00056459
2052,96.99996948,69.00032044
2053,96.99996948,68.00007630
2054,96.99996948,68.00007630
2055,96.99996948,68.00007630
2056,96.99996948,67.00070193
2057,96.99996948,66.00045778
2058,96.99996948,66.00045778
2059,96.99996948,66.00045778
2060,96.99996948,65.00021363
2061,96.99996948,64.00083926
2062,96.00000000,65.00021363
2063,96.00000000,65.00021363
2064,96.00000000,65.00021363
2065,96.00000000,65.00021363
2066,96.00000000,66.00045778
2067,96.00000000,66.00045778
2068,96.00000000,66.00045778
2069,96.00000000,66.00045778
2070,96.00000000,66.00045778
2071,96.00000000,66.00045778
2072,96.00000000,66.00045778
2073,96.00000000,66.00045778
2074,96.00000000,66.00045778
2075,96.00000000,66.00045778
2076,96.00000000,66.00045778
2077,96.00000000,66.00045778
2078,96.00000000,66.00045778
2079,96.00000000,66.00045778
2080,96.00000000,66.00045778
2081,96.00000000,65.00021363
2082,96.00000000,66.00045778
2083,96.00000000,69.00032044
2084,96.00000000,72.00018311
2085,96.00000000,72.00018311
2086,96.00000000,73.00042726
2087,96.00000000,73.00042726
2088,96.00000000,72.00018311
2089,96.00000000,71.00080874
2090,96.00000000,71.00080874
2091,96.00000000,71.00080874
2092,96.00000000,70.00056459
2093,96.00000000,70.00056459
2094,96.00000000,71.00080874
2095,96.00000000,71.00080874
2096,96.00000000,70.00056459
2097,96.00000000,69.00032044
2098,96.00000000,67.00070193
2099,96.00000000,66.00045778
2100,96.00000000,66.00045778
2101,96.00000000,66.00045778
2102,96.00000000,66.00045778
2103,96.00000000,65.00021363
2104,95.00003052,65.00021363
2105,95.00003052,66.00045778
2106,95.00003052,66.00045778
2107,95.00003052,65.00021363
2108,95.00003052,64.00083926
2109,95.00003052,64.00083926
2110,95.00003052,64.00083926
2111,95.00003052,64.00083926
2112,95.00003052,63.00059511
2113,95.00003052,63.00059511
2114,95.00003052,63.00059511
2115,95.00003052,62.00035096
2116,95.00003052,62.00035096
2117,96.00000000,63.00059511
2118,96.00000000,63.00059511
2119,96.00000000,63.00059511
2120,96.00000000,63.00059511
2121,96.00000000,63.00059511
2122,96.00000000,64.00083926
2123,96.00000000,63.00059511
2124,96.00000000,63.00059511
2125,96.00000000,63.00059511
2126,96.00000000,63.00059511
2127,96.00000000,62.00035096
2128,96.00000000,63.00059511
2129,96.00000000,63.00059511
2130,96.00000000,63.00059511
2131,96.00000000,62.00035096
2132,96.00000000,63.00059511
2133,96.00000000,63.00059511
2134,96.00000000,63.00059511
2135,96.00000000,62.00035096
2136,96.00000000,63.00059511
2137,96.00000000,63.00059511
2138,96.00000000,63.00059511
2139,96.00000000,63.00059511
2140,96.00000000,63.00059511
2141,96.00000000,63.00059511
2142,95.00003052,63.00059511
2143,95.00003052,63.00059511
2144,95.00003052,62.00035096
2145,95.00003052,62.00035096
2146,96.00000000,61.00010681
2147,96.00000000,61.00010681
2148,96.00000000,62.00035096
2149,96.00000000,62.00035096
2150,96.00000000,63.00059511
2151,96.00000000,63.00059511
2152,96.00000000,63.00059511
2153,96.00000000,64.00083926
2154,96.00000000,64.00083926
2155,96.00000000,64.00083926
2156,96.00000000,63.00059511
2157,96.00000000,63.00059511
2158,96.00000000,62.00035096
2159,96.00000000,61.00010681
2160,96.00000000,61.00010681
2161,96.00000000,61.00010681
2162,96.00000000,61.00010681
2163,96.00000000,61.00010681
2164,96.00000000,62.00035096
2165,96.00000000,62.00035096
2166,96.00000000,62.00035096
2167,95.00003052,62.00035096
2168,95.00003052,63.00059511
2169,95.00003052,62.00035096
2170,95.00003052,62.00035096
2171,95.00003052,62.00035096
2172,95.00003052,62.00035096
2173,95.00003052,62.00035096
2174,95.00003052,62.00035096
2175,95.00003052,62.00035096
2176,95.00003052,62.00035096
2177,95.00003052,62.00035096
2178,95.00003052,61.00010681
2179,95.00003052,61.00010681
2180,95.00003052,61.00010681
2181,95.00003052,60.00073244
2182,95.00003052,61.00010681
2183,95.00003052,60.00073244
2184,95.00003052,60.00073244
2185,95.00003052,60.00073244
2186,95.00003052,60.00073244
2187,95.00003052,60.00073244
2188,95.00003052,59.00048830
2189,95.00003052,59.00048830
2190,95.00003052,59.00048830
2191,95.00003052,59.00048830
2192,95.00003052,59.00048830
2193,95.00003052,58.00024415
2194,95.00003052,58.00024415
2195,95.00003052,58.00024415
2196,95.00003052,58.00024415
2197,95.00003052,58.00024415
2198,95.00003052,59.00048830
2199,95.00003052,60.00073244
2200,95.00003052,60.00073244
2201,95.00003052,60.00073244
2202,95.00003052,61.00010681
2203,96.00000000,61.00010681
2204,96.00000000,61.00010681
2205,96.00000000,61.00010681
2206,96.00000000,61.00010681
2207,96.00000000,61.00010681
2208,96.00000000,61.00010681
2209,96.00000000,60.00073244
2210,96.00000000,60.00073244
2211,96.00000000,61.00010681
2212,96.00000000,61.00010681
2213,96.00000000,61.00010681
2214,96.00000000,61.00010681
2215,95.00003052,62.00035096
2216,95.00003052,62.00035096
2217,95.00003052,62.00035096
2218,95.00003052,62.00035096
2219,95.00003052,62.00035096
2220,95.00003052,62.00035096
2221,95.00003052,62.00035096
2222,95.00003052,62.00035096
2223,95.00003052,62.00035096
2224,95.00003052,62.00035096
2225,95.00003052,62.00035096
2226,95.00003052,62.00035096
2227,95.00003052,62.00035096
2228,95.00003052,63.00059511
2229,95.00003052,63.00059511
2230,95.00003052,63.00059511
2231,95.00003052,63.00059511
2232,95.00003052,62.00035096
2233,95.00003052,62.00035096
2234,95.00003052,62.00035096
2235,95.00003052,62.00035096
2236,95.00003052,63.00059511
2237,95.00003052,63.00059511
2238,95.00003052,64.00083926
2239,95.00003052,65.00021363
2240,95.00003052,65.00021363
2241,95.00003052,65.00021363
2242,95.00003052,64.00083926
2243,95.00003052,63.00059511
2244,95.00003052,62.00035096
2245,95.00003052,62.00035096
2246,95.00003052,62.00035096
2247,95.00003052,63.00059511
2248,95.00003052,63.00059511
2249,95.00003052,63.00059511
2250,95.00003052,64.00083926
2251,95.00003052,63.00059511
2252,95.00003052,63.00059511
2253,95.00003052,64.00083926
2254,95.00003052,64.00083926
2255,95.00003052,64.00083926
2256,95.00003052,65.00021363
2257,95.00003052,65.00021363
2258,95.00003052,66.00045778
2259,95.00003052,66.00045778
2260,95.00003052,67.00070193
2261,95.00003052,66.00045778
2262,95.00003052,65.00021363
2263,95.00003052,65.00021363
2264,95.00003052,66.00045778
2265,95.00003052,65.00021363
2266,95.00003052,66.00045778
2267,95.00003052,67.00070193
2268,95.00003052,66.00045778
2269,95.00003052,65.00021363
2270,95.00003052,65.00021363
2271,95.00003052,66.00045778
2272,95.00003052,64.00083926
2273,95.00003052,64.00083926
2274,95.00003052,65.00021363
2275,95.00003052,65.00021363
2276,95.00003052,64.00083926
2277,95.00003052,63.00059511
2278,95.00003052,63.00059511
2279,95.00003052,63.00059511
2280,95.00003052,62.00035096
2281,96.00000000,62.00035096
2282,96.00000000,62.00035096
2283,96.00000000,62.00035096
2284,96.00000000,62.00035096
2285,96.00000000,62.00035096
