'sample interval','SpO2','hr'
'1 sec','%','bpm'
0,96.00001526,57.00019837
1,96.00001526,57.00019837
2,96.00001526,58.00007630
3,96.00001526,58.00007630
4,96.00001526,58.00007630
5,96.00001526,58.00007630
6,96.00001526,58.00007630
7,96.00001526,57.00019837
8,96.00001526,57.00019837
9,96.00001526,57.00019837
10,96.00001526,58.00007630
11,96.00001526,58.00007630
12,96.00001526,58.00007630
13,96.00001526,59.00097659
14,96.00001526,59.00097659
15,96.00001526,59.00097659
16,96.00001526,59.00097659
17,96.00001526,60.00085452
18,96.00001526,60.00085452
19,96.00001526,60.00085452
20,96.00001526,60.00085452
21,96.00001526,61.00073244
22,96.00001526,61.00073244
23,96.00001526,61.00073244
24,96.00001526,61.00073244
25,96.00001526,61.00073244
26,96.00001526,61.00073244
27,96.00001526,60.00085452
28,96.00001526,59.00097659
29,96.00001526,59.00097659
30,96.00001526,59.00097659
31,96.00001526,59.00097659
32,96.00001526,59.00097659
33,96.00001526,59.00097659
34,96.00001526,59.00097659
35,96.00001526,59.00097659
36,96.00001526,60.00085452
37,96.00001526,60.00085452
38,96.00001526,60.00085452
39,96.00001526,60.00085452
40,96.00001526,61.00073244
41,96.00001526,61.00073244
42,96.00001526,61.00073244
43,96.00001526,61.00073244
44,96.00001526,61.00073244
45,96.00001526,60.00085452
46,96.00001526,60.00085452
47,96.00001526,60.00085452
48,96.00001526,60.00085452
49,96.00001526,60.00085452
50,96.00001526,60.00085452
51,96.00001526,59.00097659
52,96.00001526,59.00097659
53,96.00001526,59.00097659
54,96.00001526,59.00097659
55,96.00001526,59.00097659
56,96.00001526,60.00085452
57,96.00001526,60.00085452
58,96.00001526,59.00097659
59,96.00001526,59.00097659
60,96.00001526,59.00097659
61,95.00000000,59.00097659
62,95.00000000,58.00007630
63,95.00000000,58.00007630
64,96.00001526,58.00007630
65,96.00001526,58.00007630
66,96.00001526,58.00007630
67,96.00001526,58.00007630
68,96.00001526,58.00007630
69,96.00001526,58.00007630
70,96.00001526,58.00007630
71,96.00001526,58.00007630
72,96.00001526,58.00007630
73,96.99995422,58.00007630
74,96.00001526,58.00007630
75,96.00001526,58.00007630
76,96.00001526,58.00007630
77,96.00001526,58.00007630
78,96.00001526,58.00007630
79,96.00001526,58.00007630
80,96.00001526,58.00007630
81,96.00001526,58.00007630
82,96.00001526,58.00007630
83,96.00001526,58.00007630
84,96.00001526,58.00007630
85,96.00001526,58.00007630
86,96.00001526,58.00007630
87,96.00001526,58.00007630
88,96.00001526,58.00007630
89,96.00001526,58.00007630
90,96.00001526,58.00007630
91,96.00001526,59.00097659
92,96.00001526,59.00097659
93,96.00001526,59.00097659
94,96.00001526,59.00097659
95,96.00001526,58.00007630
96,96.99995422,58.00007630
97,96.99995422,58.00007630
98,96.00001526,58.00007630
99,96.00001526,59.00097659
100,96.00001526,59.00097659
101,96.00001526,59.00097659
102,96.00001526,59.00097659
103,96.00001526,59.00097659
104,96.00001526,59.00097659
105,96.00001526,59.00097659
106,96.00001526,59.00097659
107,96.00001526,59.00097659
108,95.00000000,59.00097659
109,95.00000000,60.00085452
110,95.00000000,60.00085452
111,95.00000000,60.00085452
112,95.00000000,59.00097659
113,96.00001526,59.00097659
114,96.00001526,59.00097659
115,96.00001526,58.00007630
116,96.00001526,59.00097659
117,96.00001526,59.00097659
118,96.00001526,59.00097659
119,96.00001526,60.00085452
120,96.00001526,60.00085452
121,96.00001526,60.00085452
122,96.00001526,60.00085452
123,96.00001526,61.00073244
124,96.00001526,61.00073244
125,96.00001526,61.00073244
126,96.00001526,61.00073244
127,96.00001526,61.00073244
128,96.00001526,61.00073244
129,96.00001526,61.00073244
130,96.00001526,61.00073244
131,96.00001526,61.00073244
132,96.00001526,60.00085452
133,96.00001526,60.00085452
134,96.00001526,60.00085452
135,96.00001526,60.00085452
136,96.00001526,59.00097659
137,96.00001526,59.00097659
138,96.00001526,60.00085452
139,96.00001526,60.00085452
140,96.00001526,59.00097659
141,96.00001526,59.00097659
142,96.00001526,60.00085452
143,96.00001526,59.00097659
144,96.00001526,59.00097659
145,96.00001526,59.00097659
146,96.00001526,59.00097659
147,96.00001526,59.00097659
148,96.00001526,58.00007630
149,96.00001526,59.00097659
150,96.00001526,59.00097659
151,96.00001526,58.00007630
152,96.00001526,58.00007630
153,96.00001526,58.00007630
154,96.00001526,58.00007630
155,96.00001526,58.00007630
156,96.00001526,59.00097659
157,96.00001526,60.00085452
158,96.00001526,60.00085452
159,96.00001526,60.00085452
160,96.00001526,60.00085452
161,96.00001526,61.00073244
162,96.00001526,61.00073244
163,96.00001526,60.00085452
164,96.00001526,60.00085452
165,96.00001526,61.00073244
166,96.00001526,61.00073244
167,96.00001526,61.00073244
168,96.00001526,61.00073244
169,96.00001526,61.00073244
170,96.00001526,61.00073244
171,96.00001526,60.00085452
172,96.00001526,60.00085452
173,96.00001526,60.00085452
174,96.00001526,60.00085452
175,96.00001526,60.00085452
176,96.00001526,60.00085452
177,96.00001526,60.00085452
178,96.00001526,60.00085452
179,96.00001526,60.00085452
180,96.00001526,60.00085452
181,96.00001526,60.00085452
182,96.00001526,60.00085452
183,96.00001526,60.00085452
184,96.00001526,60.00085452
185,96.00001526,59.00097659
186,96.00001526,59.00097659
187,96.00001526,59.00097659
188,96.00001526,59.00097659
189,96.00001526,59.00097659
190,96.00001526,58.00007630
191,96.00001526,58.00007630
192,96.00001526,58.00007630
193,96.00001526,58.00007630
194,96.00001526,57.00019837
195,96.00001526,57.00019837
196,96.00001526,57.00019837
197,96.00001526,57.00019837
198,96.00001526,57.00019837
199,96.00001526,57.00019837
200,96.00001526,57.00019837
201,96.00001526,57.00019837
202,96.00001526,58.00007630
203,96.00001526,58.00007630
204,96.00001526,58.00007630
205,96.00001526,58.00007630
206,96.00001526,58.00007630
207,96.00001526,58.00007630
208,96.00001526,58.00007630
209,96.00001526,59.00097659
210,96.00001526,59.00097659
211,95.00000000,59.00097659
212,95.00000000,59.00097659
213,95.00000000,60.00085452
214,95.00000000,59.00097659
215,95.00000000,59.00097659
216,95.00000000,59.00097659
217,95.00000000,59.00097659
218,95.00000000,59.00097659
219,96.00001526,59.00097659
220,96.00001526,59.00097659
221,96.00001526,59.00097659
222,96.00001526,58.00007630
223,96.00001526,58.00007630
224,96.00001526,58.00007630
225,96.00001526,58.00007630
226,96.00001526,58.00007630
227,96.00001526,59.00097659
228,96.00001526,60.00085452
229,96.00001526,60.00085452
230,96.00001526,61.00073244
231,96.00001526,62.00061037
232,96.00001526,62.00061037
233,96.00001526,61.00073244
234,96.00001526,60.00085452
235,96.00001526,59.00097659
236,96.00001526,58.00007630
237,96.00001526,57.00019837
238,96.00001526,57.00019837
239,96.00001526,57.00019837
240,96.00001526,57.00019837
241,96.00001526,57.00019837
242,96.00001526,57.00019837
243,96.00001526,57.00019837
244,96.00001526,58.00007630
245,96.00001526,58.00007630
246,96.00001526,58.00007630
247,96.00001526,59.00097659
248,96.00001526,59.00097659
249,96.00001526,59.00097659
250,96.00001526,60.00085452
251,96.00001526,61.00073244
252,96.00001526,61.00073244
253,96.00001526,61.00073244
254,96.00001526,61.00073244
255,96.00001526,61.00073244
256,96.00001526,61.00073244
257,96.00001526,62.00061037
258,96.99995422,62.00061037
259,96.99995422,61.00073244
260,96.99995422,62.00061037
261,96.99995422,62.00061037
262,96.99995422,62.00061037
263,96.99995422,62.00061037
264,96.99995422,62.00061037
265,96.99995422,62.00061037
266,96.00001526,62.00061037
267,96.00001526,62.00061037
268,96.00001526,63.00048830
269,96.00001526,63.00048830
270,96.99995422,63.00048830
271,96.00001526,63.00048830
272,96.00001526,64.00036622
273,96.00001526,65.00024415
274,96.00001526,64.00036622
275,96.00001526,64.00036622
276,96.00001526,63.00048830
277,96.00001526,63.00048830
278,96.00001526,62.00061037
279,96.00001526,63.00048830
280,96.00001526,63.00048830
281,96.00001526,63.00048830
282,96.00001526,63.00048830
283,96.00001526,63.00048830
284,96.00001526,63.00048830
285,96.99995422,63.00048830
286,96.99995422,63.00048830
287,96.99995422,66.00012207
288,96.99995422,66.00012207
289,96.00001526,66.00012207
290,96.00001526,65.00024415
291,96.00001526,63.00048830
292,96.00001526,62.00061037
293,96.00001526,61.00073244
294,96.00001526,60.00085452
295,96.00001526,60.00085452
296,96.00001526,63.00048830
297,96.00001526,63.00048830
298,96.00001526,62.00061037
299,96.00001526,64.00036622
300,96.00001526,62.00061037
301,96.00001526,58.00007630
302,96.00001526,58.00007630
303,96.00001526,59.00097659
304,96.00001526,59.00097659
305,96.00001526,59.00097659
306,96.00001526,59.00097659
307,96.00001526,59.00097659
308,96.00001526,59.00097659
309,96.00001526,59.00097659
310,96.00001526,59.00097659
311,96.99995422,61.00073244
312,96.99995422,68.00090030
313,96.99995422,77.00082400
314,96.99995422,83.00009156
315,96.99995422,83.00009156
316,96.99995422,87.99948119
317,96.99995422,89.99923704
318,96.99995422,89.99923704
319,96.99995422,89.99923704
320,96.99995422,89.99923704
321,96.99995422,90.99911496
322,96.99995422,90.99911496
323,96.00001526,86.99960326
324,96.00001526,81.00033570
325,96.00001526,81.00033570
326,96.00001526,75.00004578
327,95.00000000,69.00077822
328,95.00000000,65.00024415
329,95.00000000,62.00061037
330,95.00000000,60.00085452
331,94.00006104,59.00097659
332,94.00006104,59.00097659
333,94.00006104,59.00097659
334,94.00006104,60.00085452
335,94.00006104,61.00073244
336,94.00006104,63.00048830
337,94.00006104,63.00048830
338,94.00006104,63.00048830
339,94.00006104,64.00036622
340,94.00006104,65.00024415
341,94.00006104,66.00012207
342,94.00006104,67.00000000
343,94.00006104,67.00000000
344,94.00006104,69.00077822
345,94.00006104,72.00041200
346,94.00006104,75.00004578
347,94.00006104,75.00004578
348,94.00006104,76.00094607
349,95.00000000,77.00082400
350,94.00006104,77.00082400
351,95.00000000,74.00016785
352,94.00006104,73.00028993
353,95.00000000,72.00041200
354,95.00000000,72.00041200
355,94.00006104,72.00041200
356,94.00006104,72.00041200
357,94.00006104,73.00028993
358,94.00006104,74.00016785
359,95.00000000,75.00004578
360,94.00006104,75.00004578
361,94.00006104,74.00016785
362,94.00006104,74.00016785
363,94.00006104,73.00028993
364,94.00006104,73.00028993
365,94.00006104,73.00028993
366,94.00006104,74.00016785
367,94.00006104,74.00016785
368,94.00006104,74.00016785
369,94.00006104,75.00004578
370,94.00006104,75.00004578
371,94.00006104,75.00004578
372,94.00006104,75.00004578
373,94.00006104,75.00004578
374,94.00006104,75.00004578
375,94.00006104,75.00004578
376,94.00006104,75.00004578
377,94.00006104,75.00004578
378,94.00006104,76.00094607
379,94.00006104,76.00094607
380,95.00000000,76.00094607
381,95.00000000,76.00094607
382,95.00000000,75.00004578
383,95.00000000,73.00028993
384,95.00000000,72.00041200
385,95.00000000,71.00053407
386,95.00000000,70.00065615
387,95.00000000,69.00077822
388,95.00000000,68.00090030
389,95.00000000,68.00090030
390,95.00000000,69.00077822
391,95.00000000,69.00077822
392,95.00000000,69.00077822
393,95.00000000,70.00065615
394,95.00000000,70.00065615
395,95.00000000,70.00065615
396,95.00000000,70.00065615
397,95.00000000,71.00053407
398,95.00000000,71.00053407
399,95.00000000,71.00053407
400,95.00000000,71.00053407
401,95.00000000,71.00053407
402,95.00000000,71.00053407
403,95.00000000,71.00053407
404,95.00000000,71.00053407
405,95.00000000,73.00028993
406,95.00000000,73.00028993
407,95.00000000,74.00016785
408,95.00000000,74.00016785
409,95.00000000,74.00016785
410,95.00000000,78.00070193
411,96.00001526,79.00057985
412,96.00001526,80.00045778
413,96.00001526,80.00045778
414,96.00001526,81.00033570
415,96.00001526,81.00033570
416,96.00001526,81.00033570
417,96.00001526,81.00033570
418,96.00001526,81.00033570
419,96.00001526,81.00033570
420,96.00001526,81.00033570
421,96.00001526,81.00033570
422,96.00001526,81.00033570
423,96.00001526,81.00033570
424,96.00001526,81.00033570
425,96.00001526,81.00033570
426,96.00001526,81.00033570
427,96.00001526,81.00033570
428,96.00001526,81.00033570
429,96.00001526,81.00033570
430,96.00001526,81.00033570
431,96.00001526,81.00033570
432,96.00001526,81.00033570
433,96.00001526,81.00033570
434,96.00001526,81.00033570
435,96.00001526,81.00033570
436,96.00001526,81.00033570
437,96.00001526,81.00033570
438,95.00000000,82.00021363
439,95.00000000,82.00021363
440,95.00000000,82.00021363
441,95.00000000,81.00033570
442,95.00000000,81.00033570
443,95.00000000,81.00033570
444,95.00000000,80.00045778
445,95.00000000,80.00045778
446,95.00000000,76.00094607
447,95.00000000,76.00094607
448,95.00000000,76.00094607
449,95.00000000,76.00094607
450,95.00000000,76.00094607
451,95.00000000,76.00094607
452,95.00000000,77.00082400
453,95.00000000,77.00082400
454,95.00000000,77.00082400
455,95.00000000,77.00082400
456,95.00000000,77.00082400
457,95.00000000,77.00082400
458,95.00000000,77.00082400
459,95.00000000,77.00082400
460,95.00000000,77.00082400
461,95.00000000,77.00082400
462,95.00000000,77.00082400
463,95.00000000,77.00082400
464,95.00000000,77.00082400
465,95.00000000,77.00082400
466,95.00000000,77.00082400
467,95.00000000,77.00082400
468,95.00000000,77.00082400
469,95.00000000,77.00082400
470,95.00000000,80.00045778
471,95.00000000,80.00045778
472,95.00000000,80.00045778
473,95.00000000,83.99996948
474,95.00000000,83.99996948
475,95.00000000,84.99984741
476,95.00000000,84.99984741
477,95.00000000,86.99960326
478,95.00000000,86.99960326
479,95.00000000,86.99960326
480,95.00000000,86.99960326
481,95.00000000,86.99960326
482,95.00000000,85.99972533
483,95.00000000,85.99972533
484,95.00000000,85.99972533
485,95.00000000,85.99972533
486,95.00000000,85.99972533
487,95.00000000,85.99972533
488,95.00000000,85.99972533
489,95.00000000,84.99984741
490,95.00000000,84.99984741
491,95.00000000,88.99935911
492,95.00000000,92.99989319
493,95.00000000,92.99989319
494,95.00000000,92.99989319
495,95.00000000,92.99989319
496,95.00000000,92.99989319
497,95.00000000,94.99964904
498,95.00000000,94.99964904
499,95.00000000,94.99964904
500,95.00000000,94.99964904
501,95.00000000,94.99964904
502,95.00000000,94.99964904
503,95.00000000,93.99977111
504,95.00000000,93.99977111
505,95.00000000,93.99977111
506,95.00000000,93.99977111
507,95.00000000,93.99977111
508,95.00000000,92.99989319
509,95.00000000,91.99899289
510,95.00000000,85.99972533
511,95.00000000,81.00033570
512,95.00000000,81.00033570
513,95.00000000,87.99948119
514,95.00000000,87.99948119
515,95.00000000,90.99911496
516,95.00000000,95.99952696
517,95.00000000,95.99952696
518,95.00000000,95.99952696
519,95.00000000,96.99940489
520,95.00000000,96.99940489
521,95.00000000,97.99928282
522,95.00000000,98.99916074
523,95.00000000,98.99916074
524,95.00000000,98.99916074
525,95.00000000,99.99903867
526,95.00000000,99.99903867
527,95.00000000,99.99903867
528,95.00000000,99.99903867
529,95.00000000,99.99903867
530,95.00000000,99.99903867
531,95.00000000,99.99903867
532,95.00000000,99.99903867
533,95.00000000,99.99903867
534,95.00000000,99.99903867
535,95.00000000,99.99903867
536,95.00000000,99.99903867
537,95.00000000,99.99903867
538,95.00000000,99.99903867
539,95.00000000,99.99903867
540,95.00000000,99.99903867
541,95.00000000,99.99903867
542,95.00000000,99.99903867
543,95.00000000,99.99903867
544,95.00000000,99.99903867
545,95.00000000,99.99903867
546,95.00000000,99.99903867
547,95.00000000,99.99903867
548,95.00000000,100.99993896
549,95.00000000,101.99981689
550,95.00000000,101.99981689
551,95.00000000,101.99981689
552,95.00000000,101.99981689
553,95.00000000,101.99981689
554,95.00000000,103.99957274
555,95.00000000,102.99969481
556,95.00000000,102.99969481
557,95.00000000,102.99969481
558,95.00000000,102.99969481
559,95.00000000,102.99969481
560,95.00000000,102.99969481
561,94.00006104,101.99981689
562,94.00006104,101.99981689
563,94.00006104,101.99981689
564,94.00006104,101.99981689
565,94.00006104,101.99981689
566,94.00006104,101.99981689
567,94.00006104,101.99981689
568,94.00006104,102.99969481
569,94.00006104,103.99957274
570,94.00006104,103.99957274
571,94.00006104,103.99957274
572,94.00006104,103.99957274
573,94.00006104,103.99957274
574,94.00006104,104.99945067
575,94.00006104,105.99932859
576,94.00006104,105.99932859
577,94.00006104,105.99932859
578,94.00006104,107.99908444
579,94.00006104,107.99908444
580,94.00006104,107.99908444
581,94.00006104,107.99908444
582,94.00006104,107.99908444
583,94.00006104,107.99908444
584,94.00006104,108.99998474
585,94.00006104,108.99998474
586,94.00006104,107.99908444
587,94.00006104,107.99908444
588,94.00006104,107.99908444
589,94.00006104,108.99998474
590,94.00006104,108.99998474
591,94.00006104,107.99908444
592,94.00006104,107.99908444
593,94.00006104,112.99949644
594,95.00000000,114.99925230
595,95.00000000,114.99925230
596,95.00000000,116.99900815
597,95.00000000,114.99925230
598,95.00000000,112.99949644
599,95.00000000,112.99949644
600,95.00000000,112.99949644
601,95.00000000,112.99949644
602,95.00000000,111.99961852
603,95.00000000,109.99986267
604,95.00000000,107.99908444
605,95.00000000,104.99945067
606,95.00000000,105.99932859
607,95.00000000,103.99957274
608,94.00006104,103.99957274
609,94.00006104,105.99932859
610,94.00006104,105.99932859
611,94.00006104,105.99932859
612,94.00006104,105.99932859
613,94.00006104,105.99932859
614,94.00006104,106.99920652
615,94.00006104,106.99920652
616,94.00006104,105.99932859
617,94.00006104,105.99932859
618,94.00006104,105.99932859
619,94.00006104,104.99945067
620,95.00000000,104.99945067
621,95.00000000,105.99932859
622,95.00000000,105.99932859
623,95.00000000,105.99932859
624,95.00000000,107.99908444
625,95.00000000,107.99908444
626,96.00001526,78.00070193
627,96.00001526,79.00057985
628,96.00001526,78.00070193
629,96.00001526,79.00057985
630,95.00000000,80.00045778
631,95.00000000,75.00004578
632,95.00000000,75.00004578
633,95.00000000,75.00004578
634,95.00000000,73.00028993
635,95.00000000,71.00053407
636,95.00000000,70.00065615
637,96.00001526,68.00090030
638,96.00001526,67.00000000
639,96.00001526,65.00024415
640,96.00001526,64.00036622
641,96.99995422,62.00061037
642,96.99995422,60.00085452
643,96.99995422,59.00097659
644,96.99995422,58.00007630
645,96.99995422,58.00007630
646,96.99995422,58.00007630
647,96.99995422,57.00019837
648,96.99995422,57.00019837
649,96.99995422,57.00019837
650,96.99995422,57.00019837
651,96.99995422,57.00019837
652,96.99995422,58.00007630
653,96.99995422,58.00007630
654,96.99995422,58.00007630
655,96.99995422,58.00007630
656,96.99995422,58.00007630
657,96.99995422,58.00007630
658,96.99995422,58.00007630
659,96.99995422,59.00097659
660,96.99995422,59.00097659
661,96.99995422,60.00085452
662,96.99995422,60.00085452
663,96.99995422,60.00085452
664,96.99995422,61.00073244
665,96.99995422,62.00061037
666,96.00001526,65.00024415
667,96.00001526,66.00012207
668,96.00001526,68.00090030
669,96.00001526,66.00012207
670,96.00001526,64.00036622
671,96.00001526,62.00061037
672,96.00001526,62.00061037
673,96.00001526,61.00073244
674,96.00001526,61.00073244
675,96.00001526,61.00073244
676,96.00001526,60.00085452
677,96.00001526,60.00085452
678,96.00001526,59.00097659
679,96.00001526,58.00007630
680,96.00001526,58.00007630
681,96.00001526,58.00007630
682,96.00001526,58.00007630
683,96.00001526,58.00007630
684,96.00001526,58.00007630
685,96.00001526,58.00007630
686,96.00001526,58.00007630
687,96.00001526,58.00007630
688,96.00001526,58.00007630
689,96.00001526,59.00097659
690,96.00001526,59.00097659
691,96.00001526,59.00097659
692,96.00001526,60.00085452
693,96.00001526,60.00085452
694,96.00001526,60.00085452
695,96.00001526,60.00085452
696,96.00001526,60.00085452
697,96.00001526,60.00085452
698,96.00001526,60.00085452
699,96.00001526,59.00097659
700,96.00001526,59.00097659
701,96.00001526,59.00097659
702,96.00001526,59.00097659
703,96.99995422,60.00085452
704,96.99995422,60.00085452
705,96.99995422,59.00097659
706,96.99995422,59.00097659
707,96.00001526,59.00097659
708,96.00001526,59.00097659
709,96.00001526,59.00097659
710,96.00001526,59.00097659
711,96.00001526,59.00097659
712,96.99995422,59.00097659
713,96.99995422,59.00097659
714,96.99995422,59.00097659
715,96.99995422,59.00097659
716,96.99995422,59.00097659
717,96.99995422,59.00097659
718,96.99995422,60.00085452
719,96.99995422,59.00097659
720,96.99995422,59.00097659
721,96.99995422,59.00097659
722,96.99995422,59.00097659
723,96.99995422,59.00097659
724,96.99995422,59.00097659
725,96.99995422,59.00097659
726,96.99995422,59.00097659
727,96.99995422,59.00097659
728,96.99995422,59.00097659
729,96.99995422,60.00085452
730,96.00001526,59.00097659
731,96.00001526,59.00097659
732,96.00001526,59.00097659
733,96.00001526,59.00097659
734,96.00001526,59.00097659
735,96.00001526,59.00097659
736,96.00001526,59.00097659
737,96.00001526,59.00097659
738,96.00001526,58.00007630
739,96.00001526,58.00007630
740,96.00001526,58.00007630
741,96.00001526,58.00007630
742,96.00001526,58.00007630
743,96.00001526,58.00007630
744,96.00001526,58.00007630
745,96.00001526,59.00097659
746,96.00001526,59.00097659
747,96.00001526,59.00097659
748,96.00001526,59.00097659
749,96.00001526,59.00097659
750,96.00001526,59.00097659
751,96.00001526,59.00097659
752,96.00001526,58.00007630
753,96.00001526,58.00007630
754,96.00001526,58.00007630
755,96.00001526,57.00019837
756,96.00001526,57.00019837
757,96.00001526,57.00019837
758,96.00001526,57.00019837
759,96.00001526,57.00019837
760,96.00001526,58.00007630
761,96.00001526,58.00007630
762,96.00001526,58.00007630
763,96.00001526,58.00007630
764,96.00001526,58.00007630
765,96.00001526,58.00007630
766,96.00001526,58.00007630
767,96.00001526,59.00097659
768,96.00001526,59.00097659
769,96.00001526,59.00097659
770,96.00001526,59.00097659
771,96.00001526,60.00085452
772,96.00001526,60.00085452
773,96.00001526,60.00085452
774,96.00001526,60.00085452
775,96.00001526,60.00085452
776,96.00001526,59.00097659
777,96.00001526,59.00097659
778,96.00001526,59.00097659
779,96.00001526,58.00007630
780,96.99995422,58.00007630
781,96.99995422,58.00007630
782,96.99995422,58.00007630
783,96.99995422,58.00007630
784,96.00001526,58.00007630
785,96.00001526,58.00007630
786,96.00001526,58.00007630
787,96.00001526,58.00007630
788,96.00001526,58.00007630
789,96.00001526,57.00019837
790,96.00001526,57.00019837
791,96.00001526,57.00019837
792,96.00001526,57.00019837
793,96.00001526,58.00007630
794,96.00001526,58.00007630
795,96.00001526,59.00097659
796,96.00001526,59.00097659
797,96.00001526,59.00097659
798,96.00001526,59.00097659
799,96.00001526,59.00097659
800,96.00001526,59.00097659
801,96.00001526,59.00097659
802,96.00001526,59.00097659
803,96.00001526,59.00097659
804,96.00001526,59.00097659
805,96.00001526,59.00097659
806,96.00001526,59.00097659
807,96.00001526,60.00085452
808,96.00001526,60.00085452
809,96.00001526,60.00085452
810,96.00001526,60.00085452
811,96.00001526,60.00085452
812,96.99995422,60.00085452
813,96.99995422,60.00085452
814,96.99995422,60.00085452
815,96.99995422,60.00085452
816,96.00001526,61.00073244
817,96.00001526,61.00073244
818,96.00001526,61.00073244
819,96.00001526,62.00061037
820,96.00001526,62.00061037
821,96.00001526,62.00061037
822,96.00001526,62.00061037
823,96.00001526,62.00061037
824,96.00001526,61.00073244
825,96.00001526,60.00085452
826,96.00001526,60.00085452
827,96.00001526,60.00085452
828,96.00001526,60.00085452
829,96.00001526,60.00085452
830,96.00001526,60.00085452
831,96.00001526,60.00085452
832,96.00001526,60.00085452
833,96.00001526,60.00085452
834,96.00001526,60.00085452
835,96.00001526,60.00085452
836,96.00001526,60.00085452
837,96.00001526,60.00085452
838,96.00001526,60.00085452
839,96.00001526,59.00097659
840,96.00001526,59.00097659
841,96.00001526,59.00097659
842,96.00001526,59.00097659
843,96.00001526,58.00007630
844,96.00001526,58.00007630
845,96.00001526,58.00007630
846,96.00001526,58.00007630
847,96.00001526,58.00007630
848,96.00001526,59.00097659
849,96.00001526,59.00097659
850,96.00001526,59.00097659
851,96.00001526,59.00097659
852,96.00001526,59.00097659
853,96.00001526,59.00097659
854,96.00001526,59.00097659
855,96.00001526,59.00097659
856,96.00001526,60.00085452
857,95.00000000,60.00085452
858,95.00000000,60.00085452
859,95.00000000,59.00097659
860,95.00000000,59.00097659
861,95.00000000,59.00097659
862,95.00000000,59.00097659
863,95.00000000,59.00097659
864,95.00000000,59.00097659
865,95.00000000,60.00085452
866,96.00001526,60.00085452
867,95.00000000,60.00085452
868,96.00001526,60.00085452
869,96.00001526,60.00085452
870,96.00001526,60.00085452
871,96.00001526,60.00085452
872,96.00001526,60.00085452
873,96.00001526,60.00085452
874,96.00001526,60.00085452
875,96.00001526,59.00097659
876,96.00001526,59.00097659
877,96.00001526,59.00097659
878,96.00001526,59.00097659
879,96.00001526,59.00097659
880,96.00001526,59.00097659
881,96.00001526,59.00097659
882,96.00001526,58.00007630
883,96.00001526,58.00007630
884,96.00001526,58.00007630
885,96.00001526,59.00097659
886,96.00001526,59.00097659
887,96.00001526,59.00097659
888,96.00001526,60.00085452
889,96.00001526,60.00085452
890,96.00001526,60.00085452
891,96.00001526,59.00097659
892,96.00001526,58.00007630
893,96.00001526,57.00019837
894,96.00001526,57.00019837
895,96.00001526,57.00019837
896,96.00001526,57.00019837
897,96.00001526,58.00007630
898,96.00001526,58.00007630
899,96.00001526,57.00019837
900,96.00001526,57.00019837
901,96.00001526,57.00019837
902,96.00001526,57.00019837
903,96.00001526,57.00019837
904,96.00001526,57.00019837
905,96.00001526,56.00032044
906,96.00001526,56.00032044
907,96.00001526,56.00032044
908,96.00001526,57.00019837
909,96.00001526,57.00019837
910,96.00001526,57.00019837
911,96.00001526,57.00019837
912,96.00001526,58.00007630
913,96.00001526,58.00007630
914,96.00001526,58.00007630
915,96.00001526,58.00007630
916,96.00001526,58.00007630
917,96.00001526,57.00019837
918,96.00001526,57.00019837
919,96.00001526,57.00019837
920,96.00001526,57.00019837
921,96.00001526,57.00019837
922,96.00001526,57.00019837
923,96.00001526,57.00019837
924,96.00001526,58.00007630
925,96.00001526,58.00007630
926,96.00001526,58.00007630
927,96.99995422,65.00024415
928,96.99995422,67.00000000
929,96.99995422,69.00077822
930,96.99995422,69.00077822
931,96.99995422,69.00077822
932,96.99995422,69.00077822
933,96.99995422,71.00053407
934,96.99995422,72.00041200
935,96.99995422,73.00028993
936,96.99995422,75.00004578
937,96.99995422,75.00004578
938,96.99995422,76.00094607
939,96.99995422,76.00094607
940,96.99995422,79.00057985
941,96.99995422,79.00057985
942,96.99995422,80.00045778
943,96.99995422,80.00045778
944,96.99995422,81.00033570
945,96.99995422,81.00033570
946,96.99995422,80.00045778
947,96.00001526,75.00004578
948,96.00001526,69.00077822
949,96.00001526,64.00036622
950,96.00001526,60.00085452
951,96.00001526,60.00085452
952,96.00001526,57.00019837
953,96.99995422,55.00044252
954,96.99995422,53.00068667
955,96.99995422,53.00068667
956,96.99995422,53.00068667
957,96.99995422,55.00044252
958,96.99995422,57.00019837
959,96.99995422,56.00032044
960,96.99995422,55.00044252
961,96.99995422,55.00044252
962,97.99996948,55.00044252
963,97.99996948,54.00056459
964,97.99996948,53.00068667
965,97.99996948,53.00068667
966,97.99996948,53.00068667
967,97.99996948,53.00068667
968,97.99996948,53.00068667
969,97.99996948,53.00068667
970,96.99995422,53.00068667
971,96.99995422,53.00068667
972,96.99995422,53.00068667
973,96.99995422,53.00068667
974,96.99995422,53.00068667
975,96.99995422,54.00056459
976,96.00001526,55.00044252
977,96.00001526,57.00019837
978,96.00001526,57.00019837
979,96.00001526,59.00097659
980,96.00001526,60.00085452
981,96.99995422,62.00061037
982,96.99995422,61.00073244
983,96.99995422,61.00073244
984,96.99995422,61.00073244
985,96.99995422,61.00073244
986,96.99995422,61.00073244
987,96.99995422,61.00073244
988,96.99995422,61.00073244
989,96.99995422,61.00073244
990,96.99995422,60.00085452
991,96.99995422,61.00073244
992,96.00001526,61.00073244
993,96.00001526,61.00073244
994,96.00001526,62.00061037
995,96.99995422,63.00048830
996,96.99995422,66.00012207
997,96.00001526,67.00000000
998,96.99995422,68.00090030
999,96.00001526,68.00090030
1000,96.00001526,67.00000000
1001,96.00001526,66.00012207
1002,96.00001526,66.00012207
1003,96.00001526,65.00024415
1004,96.99995422,65.00024415
1005,96.99995422,64.00036622
1006,96.00001526,64.00036622
1007,96.00001526,64.00036622
1008,96.00001526,64.00036622
1009,96.00001526,64.00036622
1010,96.00001526,64.00036622
1011,96.00001526,64.00036622
1012,96.00001526,64.00036622
1013,96.00001526,64.00036622
1014,96.00001526,65.00024415
1015,96.00001526,64.00036622
1016,96.00001526,65.00024415
1017,96.00001526,65.00024415
1018,96.00001526,65.00024415
1019,96.00001526,66.00012207
1020,96.00001526,64.00036622
1021,96.00001526,62.00061037
1022,96.00001526,61.00073244
1023,96.00001526,60.00085452
1024,96.00001526,59.00097659
1025,96.00001526,59.00097659
1026,96.00001526,60.00085452
1027,96.00001526,59.00097659
1028,96.00001526,60.00085452
1029,96.00001526,61.00073244
1030,96.00001526,61.00073244
1031,96.00001526,62.00061037
1032,96.00001526,64.00036622
1033,96.00001526,66.00012207
1034,96.00001526,68.00090030
1035,96.00001526,68.00090030
1036,96.00001526,69.00077822
1037,96.00001526,70.00065615
1038,96.00001526,69.00077822
1039,96.00001526,68.00090030
1040,96.00001526,66.00012207
1041,96.00001526,65.00024415
1042,96.00001526,63.00048830
1043,96.00001526,63.00048830
1044,96.00001526,63.00048830
1045,96.00001526,64.00036622
1046,96.00001526,64.00036622
1047,96.00001526,64.00036622
1048,96.00001526,65.00024415
1049,96.00001526,65.00024415
1050,96.00001526,65.00024415
1051,96.00001526,64.00036622
1052,96.00001526,63.00048830
1053,96.00001526,62.00061037
1054,96.00001526,61.00073244
1055,96.00001526,61.00073244
1056,96.00001526,62.00061037
1057,96.00001526,63.00048830
1058,96.00001526,63.00048830
1059,96.00001526,64.00036622
1060,96.00001526,65.00024415
1061,96.00001526,65.00024415
1062,96.00001526,64.00036622
1063,96.00001526,64.00036622
1064,95.00000000,63.00048830
1065,95.00000000,62.00061037
1066,95.00000000,62.00061037
1067,95.00000000,65.00024415
1068,95.00000000,65.00024415
1069,95.00000000,65.00024415
1070,95.00000000,66.00012207
1071,95.00000000,66.00012207
1072,95.00000000,63.00048830
1073,95.00000000,62.00061037
1074,96.00001526,61.00073244
1075,96.00001526,60.00085452
1076,96.00001526,60.00085452
1077,96.00001526,60.00085452
1078,96.00001526,62.00061037
1079,96.00001526,62.00061037
1080,96.00001526,63.00048830
1081,96.00001526,63.00048830
1082,96.00001526,63.00048830
1083,96.00001526,64.00036622
1084,96.00001526,63.00048830
1085,95.00000000,64.00036622
1086,96.00001526,63.00048830
1087,96.00001526,63.00048830
1088,96.00001526,62.00061037
1089,96.00001526,62.00061037
1090,96.00001526,62.00061037
1091,96.00001526,62.00061037
1092,96.00001526,63.00048830
1093,96.00001526,63.00048830
1094,96.00001526,63.00048830
1095,96.00001526,63.00048830
1096,96.00001526,63.00048830
1097,96.00001526,63.00048830
1098,96.00001526,67.00000000
1099,96.00001526,67.00000000
1100,96.00001526,69.00077822
1101,96.00001526,70.00065615
1102,96.00001526,68.00090030
1103,96.00001526,65.00024415
1104,96.00001526,63.00048830
1105,96.00001526,62.00061037
1106,96.00001526,60.00085452
1107,96.00001526,60.00085452
1108,96.00001526,60.00085452
1109,96.00001526,60.00085452
1110,96.00001526,61.00073244
1111,96.00001526,63.00048830
1112,96.00001526,63.00048830
1113,96.00001526,65.00024415
1114,96.00001526,67.00000000
1115,96.00001526,67.00000000
1116,96.00001526,66.00012207
1117,96.00001526,64.00036622
1118,96.00001526,63.00048830
1119,96.00001526,62.00061037
1120,95.00000000,62.00061037
1121,95.00000000,63.00048830
1122,95.00000000,64.00036622
1123,95.00000000,65.00024415
1124,95.00000000,66.00012207
1125,95.00000000,65.00024415
1126,95.00000000,65.00024415
1127,95.00000000,64.00036622
1128,95.00000000,63.00048830
1129,95.00000000,62.00061037
1130,95.00000000,62.00061037
1131,95.00000000,63.00048830
1132,95.00000000,63.00048830
1133,95.00000000,64.00036622
1134,95.00000000,66.00012207
1135,95.00000000,68.00090030
1136,95.00000000,68.00090030
1137,95.00000000,68.00090030
1138,95.00000000,67.00000000
1139,95.00000000,65.00024415
1140,95.00000000,65.00024415
1141,95.00000000,64.00036622
1142,95.00000000,64.00036622
1143,95.00000000,65.00024415
1144,95.00000000,66.00012207
1145,95.00000000,66.00012207
1146,95.00000000,66.00012207
1147,95.00000000,66.00012207
1148,95.00000000,66.00012207
1149,95.00000000,66.00012207
1150,95.00000000,67.00000000
1151,95.00000000,67.00000000
1152,95.00000000,66.00012207
1153,95.00000000,66.00012207
1154,95.00000000,66.00012207
1155,95.00000000,65.00024415
1156,95.00000000,64.00036622
1157,95.00000000,63.00048830
1158,95.00000000,63.00048830
1159,95.00000000,64.00036622
1160,95.00000000,65.00024415
1161,95.00000000,68.00090030
1162,95.00000000,68.00090030
1163,95.00000000,69.00077822
1164,95.00000000,71.00053407
1165,95.00000000,70.00065615
1166,95.00000000,68.00090030
1167,95.00000000,65.00024415
1168,96.00001526,65.00024415
1169,96.00001526,63.00048830
1170,96.00001526,64.00036622
1171,96.00001526,64.00036622
1172,96.00001526,65.00024415
1173,96.00001526,65.00024415
1174,96.00001526,65.00024415
1175,96.00001526,63.00048830
1176,96.00001526,63.00048830
1177,96.00001526,63.00048830
1178,96.00001526,67.00000000
1179,96.00001526,69.00077822
1180,96.00001526,70.00065615
1181,96.00001526,70.00065615
1182,96.00001526,70.00065615
1183,96.00001526,69.00077822
1184,96.00001526,68.00090030
1185,96.00001526,67.00000000
1186,95.00000000,66.00012207
1187,95.00000000,66.00012207
1188,95.00000000,66.00012207
1189,95.00000000,66.00012207
1190,95.00000000,66.00012207
1191,95.00000000,66.00012207
1192,95.00000000,66.00012207
1193,95.00000000,66.00012207
1194,95.00000000,66.00012207
1195,95.00000000,66.00012207
1196,95.00000000,66.00012207
1197,96.00001526,67.00000000
1198,96.00001526,67.00000000
1199,96.00001526,66.00012207
1200,96.00001526,65.00024415
1201,96.00001526,64.00036622
1202,95.00000000,62.00061037
1203,95.00000000,60.00085452
1204,95.00000000,59.00097659
1205,95.00000000,59.00097659
1206,96.00001526,59.00097659
1207,96.00001526,61.00073244
1208,96.00001526,62.00061037
1209,96.00001526,64.00036622
1210,96.99995422,64.00036622
1211,96.99995422,65.00024415
1212,96.99995422,65.00024415
1213,96.99995422,64.00036622
1214,96.99995422,64.00036622
1215,96.99995422,64.00036622
1216,96.99995422,65.00024415
1217,96.99995422,68.00090030
1218,96.99995422,68.00090030
1219,96.99995422,69.00077822
1220,96.99995422,72.00041200
1221,96.99995422,72.00041200
1222,96.99995422,73.00028993
1223,96.99995422,73.00028993
1224,96.99995422,72.00041200
1225,96.99995422,72.00041200
1226,96.99995422,71.00053407
1227,96.99995422,71.00053407
1228,96.99995422,70.00065615
1229,96.99995422,70.00065615
1230,96.99995422,69.00077822
1231,96.99995422,69.00077822
1232,97.99996948,69.00077822
1233,96.99995422,69.00077822
1234,96.99995422,69.00077822
1235,96.00001526,71.00053407
1236,96.00001526,73.00028993
1237,96.00001526,73.00028993
1238,96.00001526,73.00028993
1239,96.00001526,73.00028993
1240,96.00001526,70.00065615
1241,96.00001526,69.00077822
1242,96.00001526,68.00090030
1243,96.00001526,67.00000000
1244,96.00001526,67.00000000
1245,96.00001526,68.00090030
1246,96.00001526,69.00077822
1247,96.00001526,69.00077822
1248,96.00001526,70.00065615
1249,96.00001526,72.00041200
1250,96.00001526,73.00028993
1251,96.00001526,73.00028993
1252,96.00001526,71.00053407
1253,96.00001526,70.00065615
1254,96.00001526,69.00077822
1255,96.00001526,69.00077822
1256,96.00001526,71.00053407
1257,95.00000000,71.00053407
1258,95.00000000,72.00041200
1259,95.00000000,72.00041200
1260,95.00000000,72.00041200
1261,95.00000000,72.00041200
1262,95.00000000,72.00041200
1263,95.00000000,71.00053407
1264,95.00000000,71.00053407
1265,95.00000000,71.00053407
1266,95.00000000,71.00053407
1267,95.00000000,71.00053407
1268,95.00000000,71.00053407
1269,95.00000000,71.00053407
1270,95.00000000,71.00053407
1271,95.00000000,71.00053407
1272,95.00000000,72.00041200
1273,95.00000000,72.00041200
1274,95.00000000,72.00041200
1275,95.00000000,71.00053407
1276,95.00000000,68.00090030
1277,95.00000000,67.00000000
1278,95.00000000,67.00000000
1279,95.00000000,66.00012207
1280,95.00000000,66.00012207
1281,95.00000000,66.00012207
1282,95.00000000,66.00012207
1283,95.00000000,66.00012207
1284,95.00000000,66.00012207
1285,95.00000000,66.00012207
1286,95.00000000,66.00012207
1287,95.00000000,66.00012207
1288,95.00000000,66.00012207
1289,96.00001526,67.00000000
1290,96.00001526,68.00090030
1291,96.00001526,68.00090030
1292,96.00001526,69.00077822
1293,95.00000000,70.00065615
1294,95.00000000,70.00065615
1295,95.00000000,71.00053407
1296,95.00000000,72.00041200
1297,95.00000000,73.00028993
1298,95.00000000,74.00016785
1299,95.00000000,72.00041200
1300,95.00000000,71.00053407
1301,95.00000000,71.00053407
1302,95.00000000,71.00053407
1303,95.00000000,71.00053407
1304,95.00000000,71.00053407
1305,95.00000000,71.00053407
1306,95.00000000,71.00053407
1307,95.00000000,71.00053407
1308,95.00000000,72.00041200
1309,95.00000000,72.00041200
1310,95.00000000,71.00053407
1311,95.00000000,71.00053407
1312,95.00000000,70.00065615
1313,95.00000000,70.00065615
1314,95.00000000,70.00065615
1315,95.00000000,71.00053407
1316,95.00000000,71.00053407
1317,95.00000000,72.00041200
1318,95.00000000,71.00053407
1319,95.00000000,70.00065615
1320,95.00000000,70.00065615
1321,95.00000000,70.00065615
1322,95.00000000,70.00065615
1323,95.00000000,82.00021363
1324,95.00000000,83.00009156
1325,96.00001526,85.99972533
1326,96.00001526,85.99972533
1327,96.00001526,85.99972533
1328,96.00001526,86.99960326
1329,96.00001526,86.99960326
1330,96.00001526,86.99960326
1331,96.99995422,83.00009156
1332,96.99995422,83.00009156
1333,96.99995422,77.00082400
1334,96.99995422,72.00041200
1335,96.99995422,66.00012207
1336,96.99995422,62.00061037
1337,96.99995422,60.00085452
1338,96.99995422,58.00007630
1339,96.99995422,57.00019837
1340,96.99995422,57.00019837
1341,96.99995422,57.00019837
1342,96.99995422,57.00019837
1343,96.99995422,56.00032044
1344,96.99995422,56.00032044
1345,96.99995422,57.00019837
1346,96.00001526,57.00019837
1347,96.00001526,57.00019837
1348,96.00001526,58.00007630
1349,96.00001526,58.00007630
1350,96.00001526,58.00007630
1351,96.00001526,58.00007630
1352,96.00001526,59.00097659
1353,96.00001526,59.00097659
1354,96.00001526,61.00073244
1355,96.00001526,61.00073244
1356,95.00000000,63.00048830
1357,95.00000000,63.00048830
1358,95.00000000,63.00048830
1359,95.00000000,62.00061037
1360,95.00000000,62.00061037
1361,95.00000000,63.00048830
1362,95.00000000,62.00061037
1363,96.00001526,62.00061037
1364,95.00000000,60.00085452
1365,95.00000000,58.00007630
1366,95.00000000,58.00007630
1367,95.00000000,57.00019837
1368,95.00000000,57.00019837
1369,95.00000000,57.00019837
1370,95.00000000,57.00019837
1371,96.00001526,58.00007630
1372,96.00001526,58.00007630
1373,96.00001526,59.00097659
1374,96.00001526,60.00085452
1375,96.00001526,60.00085452
1376,96.00001526,60.00085452
1377,96.00001526,60.00085452
1378,96.00001526,59.00097659
1379,96.00001526,58.00007630
1380,96.00001526,57.00019837
1381,96.00001526,56.00032044
1382,96.00001526,57.00019837
1383,96.00001526,57.00019837
1384,96.00001526,57.00019837
1385,96.00001526,57.00019837
1386,96.00001526,57.00019837
1387,96.00001526,57.00019837
1388,96.00001526,56.00032044
1389,96.00001526,56.00032044
1390,96.00001526,56.00032044
1391,96.00001526,56.00032044
1392,96.00001526,56.00032044
1393,96.00001526,57.00019837
1394,96.00001526,57.00019837
1395,96.00001526,56.00032044
1396,96.00001526,56.00032044
1397,96.00001526,56.00032044
1398,96.00001526,56.00032044
1399,96.00001526,55.00044252
1400,96.00001526,55.00044252
1401,96.99995422,55.00044252
1402,96.99995422,55.00044252
1403,96.99995422,55.00044252
1404,96.99995422,55.00044252
1405,96.99995422,55.00044252
1406,96.99995422,56.00032044
1407,96.99995422,56.00032044
1408,96.99995422,56.00032044
1409,96.99995422,56.00032044
1410,96.99995422,56.00032044
1411,96.99995422,56.00032044
1412,96.99995422,56.00032044
1413,96.00001526,56.00032044
1414,96.00001526,56.00032044
1415,96.00001526,56.00032044
1416,96.00001526,56.00032044
1417,96.00001526,56.00032044
1418,96.00001526,56.00032044
1419,96.00001526,56.00032044
1420,96.00001526,56.00032044
1421,96.00001526,56.00032044
1422,96.00001526,56.00032044
1423,96.00001526,56.00032044
1424,96.00001526,56.00032044
1425,96.00001526,56.00032044
1426,96.00001526,56.00032044
1427,95.00000000,56.00032044
1428,95.00000000,56.00032044
1429,95.00000000,56.00032044
1430,95.00000000,56.00032044
1431,95.00000000,56.00032044
1432,95.00000000,56.00032044
1433,96.00001526,56.00032044
1434,96.00001526,56.00032044
1435,96.00001526,56.00032044
1436,96.00001526,56.00032044
1437,96.00001526,57.00019837
1438,96.00001526,57.00019837
1439,96.00001526,57.00019837
1440,96.00001526,56.00032044
1441,96.00001526,56.00032044
1442,96.00001526,57.00019837
1443,96.00001526,57.00019837
1444,96.00001526,57.00019837
1445,96.00001526,57.00019837
1446,96.00001526,57.00019837
1447,96.00001526,57.00019837
1448,96.00001526,57.00019837
1449,96.00001526,57.00019837
1450,96.00001526,57.00019837
1451,96.00001526,57.00019837
1452,96.00001526,56.00032044
1453,96.00001526,56.00032044
1454,96.00001526,56.00032044
1455,96.00001526,56.00032044
1456,96.00001526,56.00032044
1457,96.00001526,56.00032044
1458,96.00001526,56.00032044
1459,96.00001526,56.00032044
1460,96.00001526,56.00032044
1461,96.00001526,56.00032044
1462,96.00001526,56.00032044
1463,96.00001526,56.00032044
1464,96.00001526,56.00032044
1465,96.00001526,56.00032044
1466,96.00001526,56.00032044
1467,96.00001526,56.00032044
1468,96.00001526,57.00019837
1469,96.00001526,57.00019837
1470,96.00001526,56.00032044
1471,96.00001526,56.00032044
1472,96.00001526,56.00032044
1473,96.00001526,57.00019837
1474,96.00001526,57.00019837
1475,96.00001526,57.00019837
1476,96.00001526,57.00019837
1477,96.00001526,57.00019837
1478,96.00001526,57.00019837
1479,96.00001526,57.00019837
1480,96.00001526,57.00019837
1481,96.00001526,57.00019837
1482,96.00001526,56.00032044
1483,96.00001526,56.00032044
1484,96.00001526,56.00032044
1485,96.00001526,56.00032044
1486,96.00001526,56.00032044
1487,96.00001526,56.00032044
1488,96.00001526,56.00032044
1489,96.00001526,56.00032044
1490,96.00001526,56.00032044
1491,96.00001526,56.00032044
1492,96.00001526,56.00032044
1493,96.00001526,56.00032044
1494,96.00001526,56.00032044
1495,96.00001526,56.00032044
1496,96.00001526,55.00044252
1497,96.00001526,55.00044252
1498,96.00001526,55.00044252
1499,96.00001526,55.00044252
1500,96.00001526,55.00044252
1501,96.00001526,54.00056459
1502,96.00001526,54.00056459
1503,96.00001526,54.00056459
1504,96.00001526,54.00056459
1505,96.00001526,55.00044252
1506,96.00001526,55.00044252
1507,96.00001526,55.00044252
1508,96.00001526,55.00044252
1509,95.00000000,55.00044252
1510,95.00000000,55.00044252
1511,95.00000000,55.00044252
1512,95.00000000,55.00044252
1513,95.00000000,55.00044252
1514,95.00000000,55.00044252
1515,95.00000000,56.00032044
1516,95.00000000,55.00044252
1517,95.00000000,55.00044252
1518,95.00000000,55.00044252
1519,95.00000000,55.00044252
1520,96.00001526,55.00044252
1521,96.00001526,54.00056459
1522,96.00001526,54.00056459
1523,96.00001526,54.00056459
1524,96.00001526,54.00056459
1525,96.00001526,54.00056459
1526,96.00001526,54.00056459
1527,96.00001526,54.00056459
1528,96.00001526,54.00056459
1529,96.00001526,54.00056459
1530,96.00001526,54.00056459
1531,96.00001526,54.00056459
1532,96.00001526,54.00056459
1533,96.00001526,54.00056459
1534,96.00001526,54.00056459
1535,96.00001526,54.00056459
1536,96.00001526,54.00056459
1537,96.00001526,54.00056459
1538,96.00001526,54.00056459
1539,96.00001526,54.00056459
1540,96.00001526,54.00056459
1541,96.00001526,54.00056459
1542,96.00001526,54.00056459
1543,96.00001526,54.00056459
1544,96.00001526,54.00056459
1545,96.00001526,54.00056459
1546,96.00001526,55.00044252
1547,96.00001526,55.00044252
1548,96.00001526,55.00044252
1549,96.00001526,55.00044252
1550,96.00001526,56.00032044
1551,96.00001526,56.00032044
1552,96.00001526,55.00044252
1553,96.00001526,56.00032044
1554,96.00001526,55.00044252
1555,96.00001526,55.00044252
1556,95.00000000,55.00044252
1557,95.00000000,56.00032044
1558,95.00000000,56.00032044
1559,95.00000000,56.00032044
1560,95.00000000,56.00032044
1561,95.00000000,56.00032044
1562,96.00001526,55.00044252
1563,96.00001526,55.00044252
1564,96.00001526,55.00044252
1565,96.00001526,54.00056459
1566,96.00001526,54.00056459
1567,96.00001526,54.00056459
1568,96.00001526,54.00056459
1569,96.00001526,55.00044252
1570,96.00001526,55.00044252
1571,96.00001526,55.00044252
1572,96.00001526,55.00044252
1573,96.00001526,54.00056459
1574,96.00001526,54.00056459
1575,96.00001526,54.00056459
1576,96.00001526,53.00068667
1577,96.00001526,53.00068667
1578,96.00001526,53.00068667
1579,96.00001526,53.00068667
1580,96.00001526,53.00068667
1581,96.00001526,53.00068667
1582,96.00001526,53.00068667
1583,96.00001526,53.00068667
1584,96.00001526,53.00068667
1585,96.00001526,53.00068667
1586,96.00001526,53.00068667
1587,96.00001526,53.00068667
1588,95.00000000,53.00068667
1589,95.00000000,54.00056459
1590,95.00000000,54.00056459
1591,95.00000000,54.00056459
1592,95.00000000,54.00056459
1593,95.00000000,54.00056459
1594,95.00000000,54.00056459
1595,95.00000000,54.00056459
1596,95.00000000,54.00056459
1597,95.00000000,54.00056459
1598,95.00000000,54.00056459
1599,96.00001526,54.00056459
1600,96.00001526,54.00056459
1601,96.00001526,54.00056459
1602,96.00001526,55.00044252
1603,96.00001526,55.00044252
1604,96.00001526,55.00044252
1605,95.00000000,55.00044252
1606,95.00000000,55.00044252
1607,95.00000000,55.00044252
1608,95.00000000,55.00044252
1609,95.00000000,55.00044252
1610,95.00000000,55.00044252
1611,95.00000000,55.00044252
1612,95.00000000,55.00044252
1613,95.00000000,55.00044252
1614,95.00000000,55.00044252
1615,95.00000000,55.00044252
1616,95.00000000,55.00044252
1617,95.00000000,55.00044252
1618,95.00000000,55.00044252
1619,95.00000000,55.00044252
1620,95.00000000,55.00044252
1621,95.00000000,55.00044252
1622,95.00000000,55.00044252
1623,95.00000000,55.00044252
1624,96.00001526,60.00085452
1625,96.00001526,60.00085452
1626,96.99995422,61.00073244
1627,96.99995422,61.00073244
1628,96.99995422,61.00073244
1629,96.99995422,62.00061037
1630,96.99995422,62.00061037
1631,96.99995422,62.00061037
1632,96.99995422,62.00061037
1633,96.99995422,63.00048830
1634,96.99995422,70.00065615
1635,96.99995422,70.00065615
1636,96.99995422,74.00016785
1637,96.99995422,74.00016785
1638,97.99996948,83.00009156
1639,97.99996948,83.00009156
1640,97.99996948,83.00009156
1641,97.99996948,83.00009156
1642,97.99996948,84.99984741
1643,97.99996948,84.99984741
1644,97.99996948,84.99984741
1645,97.99996948,84.99984741
1646,97.99996948,84.99984741
1647,97.99996948,84.99984741
1648,97.99996948,83.00009156
1649,97.99996948,79.00057985
1650,96.99995422,73.00028993
1651,96.99995422,73.00028993
1652,96.99995422,67.00000000
1653,96.99995422,62.00061037
1654,96.99995422,59.00097659
1655,96.99995422,56.00032044
1656,96.99995422,56.00032044
1657,96.99995422,54.00056459
1658,96.99995422,53.00068667
1659,96.99995422,51.00093081
1660,96.99995422,51.00093081
1661,96.00001526,50.00003052
1662,96.00001526,50.00003052
1663,96.00001526,50.00003052
1664,96.00001526,51.00093081
1665,96.00001526,51.00093081
1666,96.00001526,51.00093081
1667,96.00001526,51.00093081
1668,96.00001526,52.00080874
1669,95.00000000,54.00056459
1670,96.00001526,55.00044252
1671,96.00001526,56.00032044
1672,96.00001526,56.00032044
1673,96.00001526,56.00032044
1674,96.00001526,56.00032044
1675,96.99995422,56.00032044
1676,96.99995422,55.00044252
1677,96.99995422,55.00044252
1678,96.99995422,55.00044252
1679,96.99995422,55.00044252
1680,96.99995422,56.00032044
1681,96.99995422,56.00032044
1682,96.99995422,56.00032044
1683,96.99995422,56.00032044
1684,96.99995422,56.00032044
1685,96.99995422,56.00032044
1686,96.99995422,56.00032044
1687,96.99995422,56.00032044
1688,96.99995422,55.00044252
1689,96.99995422,55.00044252
1690,96.99995422,55.00044252
1691,96.99995422,55.00044252
1692,96.99995422,55.00044252
1693,96.99995422,55.00044252
1694,96.99995422,55.00044252
1695,96.99995422,55.00044252
1696,96.99995422,55.00044252
1697,96.99995422,56.00032044
1698,96.99995422,57.00019837
1699,96.99995422,57.00019837
1700,96.99995422,57.00019837
1701,96.99995422,57.00019837
1702,96.99995422,57.00019837
1703,96.99995422,58.00007630
1704,96.99995422,58.00007630
1705,96.99995422,58.00007630
1706,96.99995422,58.00007630
1707,96.99995422,58.00007630
1708,96.99995422,58.00007630
1709,96.99995422,58.00007630
1710,96.99995422,58.00007630
1711,96.99995422,58.00007630
1712,96.99995422,58.00007630
1713,96.99995422,57.00019837
1714,96.99995422,57.00019837
1715,96.99995422,56.00032044
1716,96.99995422,56.00032044
1717,96.99995422,56.00032044
1718,96.99995422,56.00032044
1719,96.99995422,56.00032044
1720,96.99995422,56.00032044
1721,96.99995422,56.00032044
1722,96.99995422,56.00032044
1723,96.99995422,56.00032044
1724,96.99995422,56.00032044
1725,96.99995422,55.00044252
1726,96.99995422,55.00044252
1727,96.99995422,55.00044252
1728,96.99995422,55.00044252
1729,96.99995422,55.00044252
1730,96.99995422,55.00044252
1731,96.99995422,56.00032044
1732,96.99995422,56.00032044
1733,96.99995422,56.00032044
1734,96.99995422,56.00032044
1735,96.99995422,56.00032044
1736,96.99995422,57.00019837
1737,96.99995422,57.00019837
1738,96.99995422,57.00019837
1739,96.99995422,57.00019837
1740,96.99995422,57.00019837
1741,96.99995422,57.00019837
1742,96.99995422,57.00019837
1743,96.99995422,57.00019837
1744,96.99995422,57.00019837
1745,96.99995422,57.00019837
1746,96.99995422,57.00019837
1747,96.99995422,57.00019837
1748,96.99995422,57.00019837
1749,96.99995422,58.00007630
1750,96.99995422,58.00007630
1751,96.99995422,58.00007630
1752,96.99995422,58.00007630
1753,96.99995422,58.00007630
1754,96.99995422,58.00007630
1755,96.99995422,58.00007630
1756,96.99995422,58.00007630
1757,96.99995422,57.00019837
1758,96.99995422,57.00019837
1759,96.99995422,58.00007630
1760,96.99995422,58.00007630
1761,96.99995422,58.00007630
1762,96.99995422,58.00007630
1763,96.99995422,58.00007630
1764,96.99995422,58.00007630
1765,96.99995422,58.00007630
1766,96.99995422,58.00007630
1767,96.99995422,58.00007630
1768,96.99995422,58.00007630
1769,96.99995422,58.00007630
1770,96.99995422,58.00007630
1771,96.99995422,58.00007630
1772,96.99995422,58.00007630
1773,96.99995422,58.00007630
1774,96.99995422,58.00007630
1775,96.99995422,58.00007630
1776,96.99995422,58.00007630
1777,96.99995422,58.00007630
1778,96.99995422,58.00007630
1779,96.99995422,58.00007630
1780,96.99995422,58.00007630
1781,96.99995422,58.00007630
1782,96.99995422,58.00007630
1783,96.99995422,58.00007630
1784,96.99995422,58.00007630
1785,96.99995422,58.00007630
1786,96.99995422,58.00007630
1787,96.99995422,58.00007630
1788,96.99995422,58.00007630
1789,96.99995422,57.00019837
1790,96.99995422,57.00019837
1791,96.99995422,57.00019837
1792,96.99995422,57.00019837
1793,96.99995422,57.00019837
1794,96.99995422,57.00019837
1795,96.99995422,57.00019837
1796,96.99995422,57.00019837
1797,96.00001526,57.00019837
1798,96.00001526,56.00032044
1799,96.00001526,56.00032044
1800,96.00001526,56.00032044
1801,96.00001526,56.00032044
1802,96.00001526,57.00019837
1803,96.00001526,57.00019837
1804,96.00001526,56.00032044
1805,96.00001526,56.00032044
1806,96.00001526,56.00032044
1807,96.00001526,56.00032044
1808,96.00001526,56.00032044
1809,96.00001526,56.00032044
1810,96.00001526,56.00032044
1811,96.00001526,56.00032044
1812,96.00001526,55.00044252
1813,96.00001526,55.00044252
1814,96.00001526,55.00044252
1815,96.00001526,55.00044252
1816,96.00001526,55.00044252
1817,96.99995422,56.00032044
1818,96.99995422,56.00032044
1819,96.99995422,57.00019837
1820,96.99995422,57.00019837
1821,96.99995422,57.00019837
1822,96.99995422,57.00019837
1823,96.99995422,57.00019837
1824,96.99995422,57.00019837
1825,96.99995422,57.00019837
1826,96.99995422,57.00019837
1827,96.99995422,57.00019837
1828,96.99995422,57.00019837
1829,96.00001526,57.00019837
1830,96.00001526,57.00019837
1831,96.00001526,57.00019837
1832,96.00001526,57.00019837
1833,96.00001526,57.00019837
1834,96.00001526,57.00019837
1835,96.00001526,57.00019837
1836,96.00001526,57.00019837
1837,96.00001526,57.00019837
1838,96.00001526,56.00032044
1839,96.00001526,56.00032044
1840,96.00001526,57.00019837
1841,96.00001526,57.00019837
1842,96.00001526,57.00019837
1843,96.00001526,57.00019837
1844,96.99995422,57.00019837
1845,96.99995422,57.00019837
1846,96.99995422,58.00007630
1847,96.99995422,58.00007630
1848,96.99995422,58.00007630
1849,96.99995422,58.00007630
1850,96.99995422,58.00007630
1851,96.99995422,58.00007630
1852,96.99995422,58.00007630
1853,96.99995422,58.00007630
1854,96.00001526,58.00007630
1855,96.00001526,57.00019837
1856,96.00001526,57.00019837
1857,96.00001526,56.00032044
1858,96.00001526,56.00032044
1859,96.00001526,56.00032044
1860,96.99995422,56.00032044
1861,96.99995422,56.00032044
1862,96.99995422,56.00032044
1863,96.99995422,57.00019837
1864,96.99995422,57.00019837
1865,96.99995422,57.00019837
1866,96.99995422,57.00019837
1867,96.99995422,57.00019837
1868,96.99995422,57.00019837
1869,96.99995422,57.00019837
1870,96.99995422,57.00019837
1871,96.99995422,57.00019837
1872,96.99995422,57.00019837
1873,96.99995422,57.00019837
1874,96.99995422,57.00019837
1875,96.99995422,57.00019837
1876,96.99995422,57.00019837
1877,96.99995422,57.00019837
1878,96.99995422,57.00019837
1879,96.99995422,57.00019837
1880,96.99995422,57.00019837
1881,96.99995422,57.00019837
1882,96.99995422,57.00019837
1883,96.99995422,56.00032044
1884,96.99995422,56.00032044
1885,96.99995422,56.00032044
1886,96.99995422,56.00032044
1887,96.99995422,56.00032044
1888,96.99995422,56.00032044
1889,96.99995422,56.00032044
1890,96.99995422,56.00032044
1891,96.99995422,56.00032044
1892,96.99995422,56.00032044
1893,96.99995422,57.00019837
1894,96.99995422,57.00019837
1895,96.99995422,58.00007630
1896,96.99995422,58.00007630
1897,96.99995422,58.00007630
1898,96.99995422,58.00007630
1899,96.99995422,57.00019837
1900,96.99995422,57.00019837
1901,96.00001526,57.00019837
1902,96.00001526,57.00019837
1903,96.00001526,57.00019837
1904,96.00001526,57.00019837
1905,96.00001526,58.00007630
1906,96.00001526,58.00007630
1907,96.00001526,58.00007630
1908,96.00001526,58.00007630
1909,96.00001526,58.00007630
1910,96.00001526,57.00019837
1911,96.00001526,57.00019837
1912,96.00001526,57.00019837
1913,96.00001526,56.00032044
1914,96.00001526,56.00032044
1915,96.00001526,56.00032044
1916,96.00001526,57.00019837
1917,96.00001526,57.00019837
1918,96.00001526,58.00007630
1919,96.00001526,58.00007630
1920,96.00001526,58.00007630
1921,96.00001526,58.00007630
1922,96.00001526,58.00007630
1923,96.00001526,58.00007630
1924,96.00001526,58.00007630
1925,96.00001526,58.00007630
1926,96.00001526,58.00007630
1927,96.00001526,58.00007630
1928,96.00001526,58.00007630
1929,96.00001526,58.00007630
1930,96.00001526,57.00019837
1931,96.00001526,57.00019837
1932,96.00001526,57.00019837
1933,96.00001526,57.00019837
1934,96.00001526,57.00019837
1935,96.00001526,57.00019837
1936,96.00001526,57.00019837
1937,96.99995422,57.00019837
1938,96.99995422,57.00019837
1939,96.99995422,57.00019837
1940,96.99995422,57.00019837
1941,96.99995422,57.00019837
1942,96.99995422,57.00019837
1943,96.99995422,57.00019837
1944,96.99995422,57.00019837
1945,96.99995422,58.00007630
1946,96.99995422,58.00007630
1947,96.99995422,58.00007630
1948,96.99995422,58.00007630
1949,96.99995422,58.00007630
1950,96.99995422,58.00007630
1951,96.99995422,58.00007630
1952,96.99995422,58.00007630
1953,96.00001526,58.00007630
1954,96.00001526,59.00097659
1955,96.00001526,59.00097659
1956,96.00001526,59.00097659
1957,96.00001526,59.00097659
1958,96.00001526,59.00097659
1959,96.00001526,58.00007630
1960,96.00001526,58.00007630
1961,96.00001526,58.00007630
1962,96.00001526,58.00007630
1963,96.99995422,58.00007630
1964,96.99995422,58.00007630
1965,96.99995422,58.00007630
1966,96.99995422,58.00007630
1967,96.99995422,58.00007630
1968,96.99995422,58.00007630
1969,96.99995422,58.00007630
1970,96.00001526,58.00007630
1971,96.00001526,58.00007630
1972,96.00001526,57.00019837
1973,96.00001526,57.00019837
1974,96.00001526,57.00019837
1975,96.00001526,57.00019837
1976,96.00001526,57.00019837
1977,96.00001526,57.00019837
1978,96.00001526,57.00019837
1979,96.00001526,57.00019837
1980,96.00001526,57.00019837
1981,96.00001526,57.00019837
1982,96.00001526,57.00019837
1983,96.00001526,57.00019837
1984,98.99998474,69.00077822
1985,98.99998474,69.00077822
1986,98.99998474,69.00077822
1987,98.99998474,69.00077822
1988,98.99998474,67.00000000
1989,98.99998474,67.00000000
1990,98.99998474,67.00000000
1991,98.99998474,67.00000000
1992,98.99998474,66.00012207
1993,98.99998474,66.00012207
1994,97.99996948,65.00024415
1995,97.99996948,64.00036622
1996,97.99996948,63.00048830
1997,97.99996948,61.00073244
1998,97.99996948,61.00073244
1999,97.99996948,60.00085452
2000,97.99996948,59.00097659
2001,97.99996948,58.00007630
2002,97.99996948,57.00019837
2003,97.99996948,57.00019837
2004,97.99996948,57.00019837
2005,96.99995422,57.00019837
2006,96.99995422,57.00019837
2007,96.99995422,57.00019837
2008,96.99995422,57.00019837
2009,96.00001526,57.00019837
2010,96.00001526,56.00032044
2011,96.00001526,56.00032044
2012,96.00001526,56.00032044
2013,96.00001526,56.00032044
2014,95.00000000,56.00032044
2015,95.00000000,56.00032044
2016,95.00000000,56.00032044
2017,95.00000000,56.00032044
2018,95.00000000,57.00019837
2019,95.00000000,57.00019837
2020,95.00000000,58.00007630
2021,95.00000000,59.00097659
2022,95.00000000,60.00085452
2023,95.00000000,60.00085452
2024,95.00000000,58.00007630
2025,95.00000000,57.00019837
2026,95.00000000,56.00032044
2027,96.00001526,55.00044252
2028,96.00001526,54.00056459
2029,96.00001526,54.00056459
2030,96.00001526,55.00044252
2031,96.00001526,55.00044252
2032,96.00001526,56.00032044
2033,96.00001526,56.00032044
2034,96.00001526,57.00019837
2035,96.00001526,57.00019837
2036,96.00001526,57.00019837
2037,96.00001526,57.00019837
2038,96.00001526,57.00019837
2039,96.00001526,56.00032044
2040,96.00001526,56.00032044
2041,96.00001526,56.00032044
2042,96.00001526,55.00044252
2043,96.00001526,55.00044252
2044,96.00001526,55.00044252
2045,96.00001526,56.00032044
2046,96.00001526,56.00032044
2047,96.00001526,56.00032044
2048,96.00001526,56.00032044
2049,96.00001526,56.00032044
2050,96.00001526,56.00032044
2051,96.00001526,56.00032044
2052,96.00001526,56.00032044
2053,96.00001526,56.00032044
2054,96.00001526,56.00032044
2055,96.00001526,56.00032044
2056,96.00001526,57.00019837
2057,96.00001526,57.00019837
2058,96.00001526,57.00019837
2059,96.00001526,57.00019837
2060,96.00001526,56.00032044
2061,96.00001526,56.00032044
2062,96.00001526,56.00032044
2063,96.00001526,56.00032044
2064,96.00001526,55.00044252
2065,96.00001526,55.00044252
2066,96.99995422,55.00044252
2067,96.99995422,55.00044252
2068,96.99995422,55.00044252
2069,96.99995422,55.00044252
2070,96.99995422,56.00032044
2071,96.99995422,57.00019837
2072,96.99995422,57.00019837
2073,96.99995422,57.00019837
2074,96.99995422,57.00019837
2075,96.99995422,57.00019837
2076,96.99995422,57.00019837
2077,96.00001526,56.00032044
2078,96.00001526,56.00032044
2079,96.00001526,56.00032044
2080,96.00001526,56.00032044
2081,96.00001526,56.00032044
2082,96.00001526,56.00032044
2083,96.00001526,56.00032044
2084,96.00001526,56.00032044
2085,96.00001526,56.00032044
2086,96.00001526,56.00032044
2087,96.00001526,56.00032044
2088,96.00001526,55.00044252
2089,96.00001526,55.00044252
2090,96.00001526,55.00044252
2091,96.00001526,55.00044252
2092,96.00001526,55.00044252
2093,96.00001526,56.00032044
2094,96.00001526,56.00032044
2095,96.00001526,56.00032044
2096,96.00001526,56.00032044
2097,96.00001526,56.00032044
2098,96.00001526,55.00044252
2099,96.00001526,55.00044252
2100,96.00001526,55.00044252
2101,96.00001526,55.00044252
2102,96.00001526,55.00044252
2103,96.00001526,55.00044252
2104,96.00001526,54.00056459
2105,96.00001526,54.00056459
2106,96.00001526,54.00056459
2107,96.00001526,54.00056459
2108,96.00001526,55.00044252
2109,96.00001526,55.00044252
2110,96.00001526,55.00044252
2111,96.00001526,55.00044252
2112,96.00001526,55.00044252
2113,96.00001526,55.00044252
2114,96.00001526,55.00044252
2115,96.00001526,55.00044252
2116,96.00001526,55.00044252
2117,96.00001526,55.00044252
2118,96.00001526,55.00044252
2119,96.00001526,56.00032044
2120,96.00001526,56.00032044
2121,96.00001526,56.00032044
2122,96.00001526,57.00019837
2123,96.00001526,57.00019837
2124,96.00001526,57.00019837
2125,96.00001526,57.00019837
2126,96.00001526,57.00019837
2127,96.00001526,57.00019837
2128,96.00001526,57.00019837
2129,96.00001526,58.00007630
2130,96.00001526,58.00007630
2131,96.00001526,58.00007630
2132,96.00001526,59.00097659
2133,96.00001526,59.00097659
2134,96.00001526,59.00097659
2135,96.00001526,59.00097659
2136,96.00001526,59.00097659
2137,96.99995422,59.00097659
2138,96.99995422,59.00097659
2139,96.99995422,58.00007630
2140,96.99995422,58.00007630
2141,96.99995422,58.00007630
2142,96.99995422,58.00007630
2143,96.99995422,58.00007630
2144,96.99995422,58.00007630
2145,96.99995422,58.00007630
2146,96.99995422,58.00007630
2147,96.99995422,59.00097659
2148,96.99995422,58.00007630
2149,96.99995422,58.00007630
2150,96.99995422,58.00007630
2151,96.99995422,57.00019837
2152,96.99995422,57.00019837
2153,96.99995422,57.00019837
2154,96.99995422,57.00019837
2155,96.99995422,57.00019837
2156,96.99995422,57.00019837
2157,96.99995422,58.00007630
2158,96.99995422,62.00061037
2159,96.00001526,64.00036622
2160,96.00001526,64.00036622
2161,96.00001526,64.00036622
2162,96.00001526,64.00036622
2163,96.00001526,64.00036622
2164,96.00001526,65.00024415
2165,96.00001526,65.00024415
2166,96.00001526,64.00036622
2167,96.00001526,63.00048830
2168,96.99995422,62.00061037
2169,96.99995422,61.00073244
2170,96.99995422,61.00073244
2171,96.99995422,59.00097659
2172,96.00001526,58.00007630
2173,96.00001526,58.00007630
2174,96.00001526,57.00019837
2175,96.00001526,57.00019837
2176,96.00001526,57.00019837
2177,96.00001526,56.00032044
2178,96.00001526,56.00032044
2179,96.00001526,56.00032044
2180,96.00001526,56.00032044
2181,96.00001526,56.00032044
2182,95.00000000,56.00032044
2183,95.00000000,56.00032044
2184,95.00000000,56.00032044
2185,95.00000000,56.00032044
2186,95.00000000,56.00032044
2187,95.00000000,56.00032044
2188,95.00000000,56.00032044
2189,95.00000000,56.00032044
2190,95.00000000,56.00032044
2191,95.00000000,56.00032044
2192,95.00000000,56.00032044
2193,95.00000000,55.00044252
2194,95.00000000,55.00044252
2195,96.00001526,56.00032044
2196,96.00001526,56.00032044
2197,96.00001526,56.00032044
2198,96.00001526,56.00032044
2199,96.00001526,56.00032044
2200,96.00001526,56.00032044
2201,96.00001526,57.00019837
2202,96.00001526,56.00032044
2203,96.00001526,56.00032044
2204,96.00001526,56.00032044
2205,96.00001526,56.00032044
2206,96.00001526,56.00032044
2207,96.00001526,56.00032044
2208,96.00001526,56.00032044
2209,96.00001526,56.00032044
2210,96.00001526,55.00044252
2211,96.00001526,55.00044252
2212,96.00001526,55.00044252
2213,96.00001526,55.00044252
2214,96.00001526,55.00044252
2215,96.00001526,55.00044252
2216,96.00001526,55.00044252
2217,96.00001526,55.00044252
2218,96.00001526,55.00044252
2219,96.00001526,54.00056459
2220,96.00001526,54.00056459
2221,96.00001526,54.00056459
2222,96.00001526,54.00056459
2223,96.00001526,54.00056459
2224,96.99995422,54.00056459
2225,96.99995422,55.00044252
2226,96.99995422,55.00044252
2227,96.99995422,55.00044252
2228,96.99995422,55.00044252
2229,96.99995422,55.00044252
2230,96.99995422,55.00044252
2231,96.99995422,55.00044252
2232,96.99995422,55.00044252
2233,96.99995422,55.00044252
2234,96.99995422,56.00032044
2235,96.99995422,56.00032044
2236,96.99995422,56.00032044
2237,96.99995422,56.00032044
2238,96.99995422,56.00032044
2239,96.99995422,56.00032044
2240,96.99995422,56.00032044
2241,96.99995422,55.00044252
2242,96.99995422,55.00044252
2243,96.99995422,56.00032044
2244,96.99995422,56.00032044
2245,96.99995422,56.00032044
2246,96.00001526,56.00032044
2247,96.00001526,56.00032044
2248,96.00001526,57.00019837
2249,96.99995422,57.00019837
2250,96.99995422,56.00032044
2251,96.99995422,56.00032044
2252,96.99995422,56.00032044
2253,96.99995422,56.00032044
2254,96.99995422,56.00032044
2255,96.99995422,56.00032044
2256,96.99995422,56.00032044
2257,96.00001526,56.00032044
2258,96.00001526,56.00032044
2259,96.00001526,56.00032044
2260,96.00001526,56.00032044
2261,96.00001526,56.00032044
2262,96.00001526,56.00032044
2263,96.00001526,56.00032044
2264,96.00001526,57.00019837
2265,96.00001526,57.00019837
2266,96.00001526,57.00019837
2267,96.00001526,57.00019837
2268,96.00001526,57.00019837
2269,96.00001526,57.00019837
2270,96.00001526,57.00019837
2271,96.00001526,58.00007630
2272,96.00001526,59.00097659
2273,96.00001526,59.00097659
2274,96.00001526,59.00097659
2275,96.00001526,58.00007630
2276,96.00001526,57.00019837
2277,96.00001526,56.00032044
2278,96.00001526,55.00044252
2279,96.99995422,55.00044252
2280,96.99995422,55.00044252
2281,96.99995422,55.00044252
2282,96.99995422,55.00044252
